Data from FLMT000111__0__14-18-36-088.txt Node

Date: Thu Oct 26 14:18:36 EDT 2023
User: Student
Spectrometer: FLMT00011
Trigger mode: 0
Integration Time (sec): 1.000000E-1
Scans to average: 5
Electric dark correction enabled: true
Nonlinearity correction enabled: false
Boxcar width: 0
XAxis mode: Wavelengths
Number of Pixels in Spectrum: 3648
>>>>>Begin Spectral Data<<<<<
171.25	-261.35
171.475	-261.35
171.699	-261.35
171.923	-223.67
172.147	-2.49
172.371	97.45
172.595	15.12
172.819	-0.03
173.043	17.99
173.267	-50
173.491	-0.44
173.715	36.83
173.939	-40.58
174.163	26.18
174.387	-40.99
174.611	-34.44
174.835	-27.07
175.059	-40.58
175.283	-14.78
175.507	-45.5
175.73	25.36
175.954	17.17
176.178	-52.05
176.402	-47.55
176.626	-9.45
176.85	-81.54
177.073	-47.55
177.297	-69.67
177.521	2.83
177.745	-20.51
177.969	8.16
178.192	-26.66
178.416	-0.44
178.64	-28.71
178.863	-15.19
179.087	-29.93
179.311	5.7
179.534	5.29
179.758	-75.4
179.982	82.29
180.205	2.42
180.429	-0.44
180.653	-14.37
180.876	4.06
181.1	-13.14
181.323	-25.43
181.547	-12.73
181.77	41.74
181.994	-4.13
182.217	32.32
182.441	41.74
182.664	-2.49
182.888	29.46
183.111	21.26
183.335	-47.96
183.558	20.45
183.782	91.71
184.005	13.07
184.228	6.52
184.452	18.81
184.675	-54.51
184.899	36.42
185.122	26.59
185.345	-51.23
185.569	-50.82
185.792	10.62
186.015	-84
186.238	-29.93
186.462	72.46
186.685	140.05
186.908	13.07
187.131	27.82
187.355	-51.64
187.578	-18.06
187.801	-1.26
188.024	-10.68
188.247	-11.91
188.471	-19.69
188.694	39.29
188.917	2.01
189.14	-29.52
189.363	54.85
189.586	-9.45
189.809	60.18
190.032	61
190.255	-18.06
190.478	-31.57
190.701	-63.52
190.924	21.26
191.147	-38.95
191.37	-25.02
191.593	67.55
191.816	-19.29
192.039	4.47
192.262	-20.51
192.485	6.52
192.708	6.93
192.931	-30.34
193.154	33.14
193.377	-46.32
193.6	31.91
193.822	-11.5
194.045	-30.34
194.268	13.89
194.491	87.62
194.714	14.3
194.936	-1.26
195.159	-13.55
195.382	26.18
195.605	-10.68
195.827	24.54
196.05	7.34
196.273	16.35
196.495	15.12
196.718	31.91
196.941	8.16
197.163	-12.73
197.386	8.57
197.609	-63.11
197.831	-22.15
198.054	93.76
198.277	15.53
198.499	-35.26
198.722	-18.47
198.944	-18.47
199.167	-6.59
199.389	-59.02
199.612	-38.95
199.834	69.19
200.057	64.27
200.279	-8.64
200.502	-48.78
200.724	-9.45
200.947	-20.51
201.169	16.35
201.391	-50.41
201.614	58.95
201.836	31.09
202.059	21.26
202.281	2.01
202.503	-19.69
202.726	-44.68
202.948	-0.85
203.17	-31.16
203.393	-9.86
203.615	-8.23
203.837	-44.68
204.059	2.42
204.282	9.39
204.504	-3.31
204.726	-48.78
204.948	-64.34
205.17	7.34
205.393	-41.81
205.615	-37.72
205.837	5.29
206.059	-12.73
206.281	34.37
206.503	-33.62
206.725	25.36
206.947	-52.87
207.17	11.02
207.392	-0.85
207.614	-41.4
207.836	-30.75
208.058	-2.49
208.28	-61.06
208.502	13.89
208.724	-3.72
208.946	51.57
209.168	42.15
209.39	31.5
209.611	46.25
209.833	36.01
210.055	45.84
210.277	9.39
210.499	-11.09
210.721	38.88
210.943	15.12
211.165	42.56
211.386	25.77
211.608	6.93
211.83	-43.86
212.052	-56.15
212.274	24.54
212.495	15.53
212.717	-66.39
212.939	-22.97
213.161	-32.8
213.382	-25.02
213.604	-13.55
213.826	-7.82
214.047	18.4
214.269	17.99
214.491	11.84
214.712	14.3
214.934	45.43
215.155	21.26
215.377	13.48
215.599	52.8
215.82	45.02
216.042	-1.26
216.263	-27.89
216.485	34.37
216.706	34.78
216.928	-15.6
217.149	-22.56
217.371	22.49
217.592	4.47
217.814	-22.97
218.035	-14.78
218.257	-2.9
218.478	-15.19
218.699	49.53
218.921	45.84
219.142	49.53
219.363	-17.24
219.585	23.72
219.806	-42.22
220.027	-2.08
220.249	21.26
220.47	10.62
220.691	8.98
220.913	26.18
221.134	44.61
221.355	-6.59
221.576	15.53
221.798	-63.11
222.019	-11.91
222.24	13.89
222.461	43.79
222.682	65.91
222.903	-19.29
223.125	58.95
223.346	17.58
223.567	-73.35
223.788	-46.32
224.009	-35.26
224.23	48.71
224.451	98.27
224.672	-0.85
224.893	2.83
225.114	-50
225.335	-66.8
225.556	5.29
225.777	55.67
225.998	16.76
226.219	13.07
226.44	22.08
226.661	36.42
226.882	33.14
227.103	5.7
227.324	-43.86
227.544	40.93
227.765	-19.29
227.986	-36.49
228.207	1.6
228.428	40.11
228.649	-16.01
228.869	-25.84
229.09	7.34
229.311	82.29
229.532	-45.09
229.752	23.72
229.973	-18.06
230.194	55.26
230.415	-18.06
230.635	43.38
230.856	-26.25
231.077	60.18
231.297	20.45
231.518	44.2
231.739	-16.83
231.959	21.26
232.18	-8.23
232.4	15.12
232.621	-7
232.841	-27.07
233.062	-76.22
233.283	-7.82
233.503	15.53
233.724	36.42
233.944	-39.36
234.165	-4.13
234.385	-11.09
234.605	29.46
234.826	-4.54
235.046	-5.36
235.267	-40.99
235.487	-2.49
235.708	32.32
235.928	-53.69
236.148	34.37
236.369	17.99
236.589	-36.08
236.809	-58.2
237.03	48.3
237.25	-6.59
237.47	15.12
237.69	15.53
237.911	4.47
238.131	27.82
238.351	0.79
238.571	13.48
238.792	-8.64
239.012	-50
239.232	-33.62
239.452	8.16
239.672	50.35
239.892	-33.62
240.112	-82.77
240.333	-36.49
240.553	10.62
240.773	54.44
240.993	-35.26
241.213	-29.12
241.433	-14.37
241.653	-7.41
241.873	-32.8
242.093	-21.33
242.313	5.29
242.533	6.52
242.753	6.93
242.973	82.29
243.193	8.16
243.413	9.8
243.633	-11.09
243.853	-35.26
244.072	33.14
244.292	-19.29
244.512	-29.93
244.732	6.52
244.952	-16.42
245.172	7.34
245.391	24.54
245.611	-13.55
245.831	-24.2
246.051	34.78
246.271	68.78
246.49	-49.19
246.71	9.39
246.93	6.11
247.149	0.38
247.369	-2.49
247.589	-0.44
247.808	9.8
248.028	-28.71
248.248	20.86
248.467	-31.16
248.687	-3.31
248.906	-39.76
249.126	-19.69
249.346	-32.39
249.565	-35.67
249.785	-31.57
250.004	51.17
250.224	-22.97
250.443	-18.47
250.663	22.49
250.882	104.41
251.102	-38.95
251.321	70.01
251.541	14.71
251.76	11.84
251.979	25.77
252.199	35.6
252.418	-51.64
252.638	4.47
252.857	18.81
253.076	13.07
253.296	4.06
253.515	-22.15
253.734	-0.85
253.953	-3.31
254.173	-69.26
254.392	-16.42
254.611	17.58
254.83	13.07
255.05	2.83
255.269	-3.31
255.488	-40.17
255.707	33.96
255.926	32.73
256.146	-27.89
256.365	53.62
256.584	-23.79
256.803	-17.24
257.022	42.15
257.241	-7
257.46	-40.17
257.679	6.11
257.898	-32.8
258.117	-8.64
258.336	36.01
258.555	-27.07
258.774	-60.65
258.993	28.23
259.212	-4.13
259.431	-79.9
259.65	3.65
259.869	-30.75
260.088	29.05
260.307	-4.13
260.526	-43.45
260.745	6.52
260.964	59.77
261.182	-37.72
261.401	-2.49
261.62	83.52
261.839	-9.86
262.058	28.23
262.276	-59.83
262.495	49.94
262.714	9.39
262.933	-1.26
263.151	-42.22
263.37	-2.49
263.589	74.92
263.807	-21.74
264.026	1.6
264.245	27.41
264.463	-22.15
264.682	-38.13
264.901	35.19
265.119	-8.64
265.338	-6.18
265.556	-47.14
265.775	-31.98
265.994	-4.95
266.212	13.07
266.431	-24.61
266.649	-12.32
266.868	-7
267.086	-49.19
267.305	-19.69
267.523	-4.95
267.742	-14.37
267.96	-2.9
268.178	34.78
268.397	31.09
268.615	-31.98
268.834	44.2
269.052	-45.09
269.27	27.41
269.489	-107.76
269.707	10.21
269.925	-0.44
270.143	87.62
270.362	11.02
270.58	71.64
270.798	-30.75
271.017	-22.56
271.235	-15.6
271.453	40.93
271.671	1.19
271.889	-17.24
272.108	-36.08
272.326	12.66
272.544	-27.48
272.762	39.7
272.98	-31.57
273.198	-25.84
273.416	-16.83
273.634	18.4
273.852	49.94
274.07	39.7
274.289	-19.29
274.507	-25.02
274.725	4.88
274.943	57.72
275.161	15.53
275.379	5.7
275.596	-66.8
275.814	-89.33
276.032	3.65
276.25	2.83
276.468	45.84
276.686	-29.52
276.904	-35.26
277.122	-27.89
277.34	48.71
277.557	64.27
277.775	-28.71
277.993	-1.67
278.211	82.7
278.429	85.16
278.646	-23.38
278.864	-6.59
279.082	-23.79
279.3	20.86
279.517	29.87
279.735	8.98
279.953	0.38
280.17	-43.45
280.388	-31.16
280.606	-59.02
280.823	90.49
281.041	58.95
281.259	-55.74
281.476	11.02
281.694	-7
281.911	8.16
282.129	7.75
282.346	-40.58
282.564	-53.28
282.781	-7.82
282.999	-2.9
283.216	-15.6
283.434	12.66
283.651	36.83
283.869	-17.24
284.086	-39.36
284.304	12.66
284.521	5.7
284.738	-57.38
284.956	3.65
285.173	-77.04
285.391	-28.3
285.608	-7.82
285.825	22.9
286.043	4.06
286.26	2.42
286.477	-22.56
286.694	4.06
286.912	57.31
287.129	49.12
287.346	-64.75
287.563	10.62
287.78	-50
287.998	-18.06
288.215	14.71
288.432	-11.09
288.649	1.6
288.866	24.95
289.083	12.66
289.3	73.69
289.518	38.47
289.735	8.98
289.952	-6.59
290.169	13.48
290.386	-18.06
290.603	-51.64
290.82	47.07
291.037	-75.81
291.254	10.21
291.471	12.25
291.688	-59.83
291.905	-4.54
292.122	-35.26
292.339	-81.13
292.555	-37.72
292.772	6.52
292.989	-6.59
293.206	24.13
293.423	-6.59
293.64	8.57
293.857	40.93
294.073	22.08
294.29	132.26
294.507	-9.45
294.724	-13.96
294.94	-54.51
295.157	-54.92
295.374	-12.32
295.591	17.99
295.807	47.07
296.024	-18.47
296.241	22.49
296.457	29.05
296.674	-15.6
296.891	-11.5
297.107	-10.68
297.324	-29.93
297.54	4.06
297.757	7.34
297.973	22.49
298.19	31.09
298.407	-38.95
298.623	-48.78
298.84	45.02
299.056	-30.34
299.272	-16.83
299.489	15.53
299.705	-18.06
299.922	-23.38
300.138	45.84
300.355	-23.38
300.571	41.33
300.787	-1.26
301.004	42.97
301.22	30.28
301.436	8.57
301.653	14.3
301.869	30.69
302.085	19.22
302.302	8.98
302.518	67.96
302.734	6.52
302.95	-35.26
303.167	11.84
303.383	17.99
303.599	33.55
303.815	12.66
304.031	-18.06
304.248	33.55
304.464	7.34
304.68	2.42
304.896	37.65
305.112	14.3
305.328	17.17
305.544	-29.93
305.76	-6.59
305.976	-20.92
306.192	-22.97
306.408	6.52
306.624	-52.05
306.84	17.99
307.056	-48.78
307.272	15.94
307.488	36.42
307.704	17.99
307.92	39.7
308.136	24.54
308.352	116.29
308.568	58.13
308.784	-5.77
309	27.82
309.215	-42.22
309.431	-4.13
309.647	-0.03
309.863	16.76
310.079	-27.07
310.294	3.65
310.51	-16.01
310.726	-40.58
310.942	71.64
311.157	12.25
311.373	86.8
311.589	-51.64
311.804	-36.49
312.02	44.2
312.236	-42.22
312.451	25.77
312.667	49.94
312.883	-52.05
313.098	26.18
313.314	39.7
313.529	8.16
313.745	43.38
313.961	50.35
314.176	15.53
314.392	31.91
314.607	-46.73
314.823	23.72
315.038	-37.31
315.253	7.34
315.469	-38.13
315.684	5.7
315.9	-79.09
316.115	31.5
316.331	85.57
316.546	24.95
316.761	-34.44
316.977	51.17
317.192	36.01
317.407	72.05
317.623	-56.56
317.838	24.13
318.053	5.29
318.268	-2.08
318.484	-58.2
318.699	1.6
318.914	-10.68
319.129	33.55
319.344	6.11
319.56	52.39
319.775	3.65
319.99	55.67
320.205	0.38
320.42	10.21
320.635	13.48
320.85	95.81
321.066	-25.02
321.281	-9.05
321.496	49.53
321.711	-9.86
321.926	-1.26
322.141	2.42
322.356	14.3
322.571	30.69
322.786	33.14
323.001	15.94
323.216	15.94
323.43	15.12
323.645	-12.73
323.86	40.11
324.075	5.29
324.29	-31.16
324.505	35.6
324.72	-35.67
324.935	37.24
325.149	19.63
325.364	0.38
325.579	11.84
325.794	-9.86
326.009	-8.64
326.223	-13.55
326.438	-27.48
326.653	6.11
326.867	45.43
327.082	62.63
327.297	-13.96
327.511	29.87
327.726	-22.97
327.941	13.89
328.155	-43.45
328.37	-24.61
328.585	-43.86
328.799	3.24
329.014	28.23
329.228	-17.65
329.443	-40.17
329.657	6.11
329.872	-18.47
330.086	-9.86
330.301	73.69
330.515	49.12
330.73	-36.9
330.944	-6.59
331.159	-24.2
331.373	17.99
331.587	-15.6
331.802	4.06
332.016	-11.09
332.231	-13.14
332.445	77.38
332.659	64.68
332.874	31.5
333.088	54.85
333.302	37.24
333.516	-13.14
333.731	-1.26
333.945	-4.95
334.159	5.7
334.373	-35.26
334.588	10.62
334.802	-2.49
335.016	15.12
335.23	-16.83
335.444	4.88
335.658	-19.69
335.872	46.25
336.087	25.36
336.301	57.31
336.515	-27.48
336.729	37.24
336.943	-1.67
337.157	45.43
337.371	-38.95
337.585	-25.84
337.799	59.36
338.013	11.02
338.227	-34.03
338.441	30.69
338.655	60.18
338.869	50.76
339.083	-22.56
339.296	-28.71
339.51	-13.14
339.724	15.94
339.938	-8.64
340.152	-22.15
340.366	65.09
340.58	33.55
340.793	-28.71
341.007	-9.05
341.221	-14.78
341.435	42.15
341.648	-3.31
341.862	11.43
342.076	-21.33
342.29	24.95
342.503	14.71
342.717	-27.89
342.931	-29.52
343.144	-22.97
343.358	-50
343.571	48.71
343.785	-31.98
343.999	74.1
344.212	91.71
344.426	7.34
344.639	11.84
344.853	8.98
345.066	-37.72
345.28	15.12
345.493	-17.24
345.707	-35.67
345.92	-60.65
346.134	-2.08
346.347	5.7
346.561	0.79
346.774	73.28
346.987	80.66
347.201	-23.79
347.414	-58.2
347.627	-39.76
347.841	-24.61
348.054	-10.68
348.267	67.55
348.481	-11.5
348.694	-35.67
348.907	11.84
349.12	23.72
349.334	-26.25
349.547	-72.94
349.76	13.89
349.973	-26.25
350.186	-40.17
350.4	40.52
350.613	35.6
350.826	-12.73
351.039	11.84
351.252	-9.05
351.465	24.54
351.678	-17.65
351.891	-7.41
352.104	-17.65
352.317	19.63
352.53	-17.24
352.743	-25.43
352.956	-23.79
353.169	13.89
353.382	37.24
353.595	-9.05
353.808	-28.71
354.021	-16.83
354.234	107.69
354.447	-23.79
354.66	33.55
354.873	22.9
355.086	138.82
355.298	5.29
355.511	1.19
355.724	6.52
355.937	74.92
356.15	52.8
356.362	11.43
356.575	-13.96
356.788	33.14
357.001	-40.58
357.213	9.8
357.426	44.61
357.639	31.09
357.851	9.8
358.064	36.42
358.277	54.03
358.489	35.19
358.702	34.37
358.914	-25.02
359.127	8.16
359.34	25.77
359.552	54.44
359.765	-22.56
359.977	90.49
360.19	13.48
360.402	20.04
360.615	5.7
360.827	-21.33
361.04	81.07
361.252	-20.1
361.465	-5.77
361.677	-5.36
361.889	26.18
362.102	-31.98
362.314	-18.47
362.526	49.12
362.739	18.81
362.951	-15.6
363.163	25.36
363.376	-4.54
363.588	-41.4
363.8	31.91
364.012	20.86
364.225	-38.54
364.437	12.66
364.649	34.37
364.861	-1.67
365.074	-45.09
365.286	39.7
365.498	24.13
365.71	10.21
365.922	-2.9
366.134	36.01
366.346	-17.65
366.558	23.31
366.77	2.42
366.983	45.02
367.195	-37.72
367.407	-22.15
367.619	52.8
367.831	9.8
368.043	-5.36
368.255	58.54
368.467	53.21
368.678	40.11
368.89	-56.97
369.102	4.47
369.314	-9.45
369.526	-0.85
369.738	-14.37
369.95	-2.9
370.162	8.57
370.373	24.95
370.585	-7.41
370.797	32.32
371.009	31.91
371.221	-0.03
371.432	-4.95
371.644	20.86
371.856	24.95
372.068	10.62
372.279	14.3
372.491	54.85
372.703	-26.66
372.914	-17.24
373.126	13.89
373.338	-110.21
373.549	13.07
373.761	2.01
373.972	-4.54
374.184	45.43
374.395	46.66
374.607	22.9
374.819	-43.86
375.03	6.52
375.242	31.5
375.453	-7.41
375.664	-11.91
375.876	46.66
376.087	10.21
376.299	70.83
376.51	13.48
376.722	17.99
376.933	13.89
377.144	82.29
377.356	-32.39
377.567	22.49
377.778	49.12
377.99	0.79
378.201	81.88
378.412	32.32
378.624	-5.77
378.835	-10.27
379.046	-31.57
379.257	1.19
379.468	28.64
379.68	-54.1
379.891	-71.71
380.102	28.23
380.313	-28.3
380.524	3.65
380.735	33.14
380.946	33.55
381.158	17.58
381.369	-34.85
381.58	48.71
381.791	-63.93
382.002	-50.41
382.213	-0.44
382.424	11.84
382.635	32.32
382.846	33.14
383.057	-3.72
383.268	-46.73
383.479	-19.29
383.69	22.9
383.9	66.73
384.111	7.75
384.322	-48.78
384.533	-0.03
384.744	15.12
384.955	38.06
385.166	44.2
385.376	-3.31
385.587	46.25
385.798	11.43
386.009	-46.73
386.22	2.01
386.43	74.1
386.641	126.12
386.852	330.92
387.062	672.11
387.273	857.66
387.484	824.07
387.694	776.56
387.905	291.19
388.116	113.01
388.326	26.59
388.537	33.14
388.747	63.86
388.958	48.71
389.168	15.12
389.379	-31.16
389.59	-12.32
389.8	-42.63
390.011	20.86
390.221	47.48
390.431	48.3
390.642	20.45
390.852	-5.77
391.063	-11.91
391.273	40.11
391.484	-23.38
391.694	12.25
391.904	12.25
392.115	9.8
392.325	23.31
392.535	-16.01
392.746	2.42
392.956	19.22
393.166	-41.81
393.376	11.43
393.587	91.71
393.797	76.97
394.007	33.55
394.217	21.67
394.427	48.71
394.638	1.19
394.848	57.31
395.058	99.91
395.268	-25.02
395.478	13.07
395.688	-11.91
395.898	1.6
396.108	28.23
396.318	1.19
396.528	36.01
396.738	20.86
396.948	16.76
397.158	-3.72
397.368	25.36
397.578	-33.62
397.788	55.26
397.998	-63.93
398.208	56.08
398.418	-81.95
398.628	8.16
398.838	-19.29
399.048	46.25
399.258	42.15
399.467	56.9
399.677	25.77
399.887	-11.5
400.097	-17.24
400.307	56.9
400.516	-22.56
400.726	14.3
400.936	32.73
401.146	16.35
401.355	35.19
401.565	49.12
401.775	-36.49
401.984	-33.21
402.194	-49.59
402.404	44.2
402.613	4.06
402.823	-31.57
403.032	1.19
403.242	-53.28
403.452	-36.08
403.661	4.47
403.871	-47.96
404.08	47.48
404.29	44.2
404.499	24.13
404.709	-43.04
404.918	17.99
405.128	23.31
405.337	-38.13
405.546	-70.89
405.756	-41.4
405.965	3.65
406.175	-0.03
406.384	29.05
406.593	-10.27
406.803	-79.9
407.012	9.39
407.221	-51.23
407.43	-33.62
407.64	6.11
407.849	-49.19
408.058	-44.68
408.267	-28.71
408.477	-79.09
408.686	-20.51
408.895	-32.39
409.104	3.24
409.313	-52.05
409.522	-23.79
409.732	19.63
409.941	16.35
410.15	3.65
410.359	60.59
410.568	-35.26
410.777	63.45
410.986	40.93
411.195	-0.85
411.404	-28.3
411.613	-0.03
411.822	47.48
412.031	19.22
412.24	34.37
412.449	-29.12
412.658	8.57
412.867	53.62
413.075	53.62
413.284	-7.82
413.493	52.8
413.702	32.32
413.911	39.7
414.12	6.11
414.328	-36.9
414.537	38.06
414.746	47.07
414.955	-40.17
415.164	-50
415.372	-23.79
415.581	83.52
415.79	-0.85
415.998	2.42
416.207	8.98
416.416	57.31
416.624	-4.95
416.833	53.21
417.042	42.15
417.25	92.53
417.459	-30.75
417.667	-18.88
417.876	33.55
418.084	12.25
418.293	-54.92
418.501	-7.41
418.71	21.26
418.918	0.38
419.127	-14.78
419.335	-40.99
419.544	-34.44
419.752	39.7
419.96	54.44
420.169	-36.9
420.377	22.08
420.586	16.35
420.794	21.26
421.002	5.7
421.211	76.97
421.419	-25.43
421.627	-45.5
421.835	17.99
422.044	-9.45
422.252	42.15
422.46	40.93
422.668	-48.78
422.877	-16.42
423.085	51.57
423.293	-18.06
423.501	-28.3
423.709	-9.86
423.917	-10.68
424.125	-34.03
424.333	-62.7
424.542	-14.37
424.75	45.02
424.958	29.05
425.166	-20.92
425.374	117.93
425.582	41.74
425.79	-19.69
425.998	-52.46
426.206	16.76
426.414	47.48
426.621	24.95
426.829	-5.77
427.037	-26.25
427.245	63.86
427.453	10.21
427.661	-10.68
427.869	41.33
428.077	-38.95
428.284	-36.9
428.492	9.8
428.7	-31.98
428.908	-63.52
429.115	71.64
429.323	0.38
429.531	-7.41
429.739	74.51
429.946	73.69
430.154	15.94
430.362	-18.47
430.569	9.8
430.777	27.41
430.985	-53.28
431.192	10.21
431.4	37.24
431.607	0.79
431.815	68.37
432.022	-5.36
432.23	27
432.437	-0.44
432.645	-22.97
432.852	-34.44
433.06	25.77
433.267	2.83
433.475	-15.19
433.682	58.54
433.89	-8.64
434.097	28.23
434.304	16.76
434.512	5.29
434.719	1.19
434.926	-38.95
435.134	-45.91
435.341	25.36
435.548	62.63
435.756	57.72
435.963	-47.55
436.17	45.84
436.377	25.36
436.585	-11.5
436.792	-47.55
436.999	4.88
437.206	45.43
437.413	2.42
437.621	-45.09
437.828	48.71
438.035	8.57
438.242	9.8
438.449	-7.41
438.656	65.5
438.863	34.37
439.07	-54.92
439.277	21.26
439.484	-22.97
439.691	11.84
439.898	-11.91
440.105	-29.52
440.312	-37.31
440.519	-63.93
440.726	2.83
440.933	-57.79
441.14	21.26
441.347	-8.23
441.553	12.25
441.76	7.75
441.967	32.73
442.174	2.42
442.381	-34.44
442.587	-29.12
442.794	-5.77
443.001	6.11
443.208	-29.12
443.414	24.54
443.621	7.34
443.828	26.18
444.035	35.19
444.241	-16.83
444.448	38.06
444.654	32.73
444.861	57.31
445.068	123.25
445.274	125.71
445.481	253.91
445.687	267.84
445.894	215.82
446.101	178.96
446.307	57.72
446.514	-13.96
446.72	-0.85
446.926	2.83
447.133	-32.39
447.339	-13.96
447.546	48.71
447.752	3.24
447.959	-83.59
448.165	-10.27
448.371	36.42
448.578	2.42
448.784	38.06
448.99	38.06
449.197	-45.91
449.403	56.9
449.609	-19.69
449.816	68.37
450.022	-4.95
450.228	48.71
450.434	49.12
450.64	-16.01
450.847	-22.56
451.053	4.47
451.259	1.19
451.465	9.8
451.671	65.91
451.877	42.56
452.083	27
452.289	-21.74
452.496	-44.27
452.702	-66.39
452.908	23.31
453.114	17.99
453.32	-47.55
453.526	-22.97
453.732	-21.33
453.938	31.91
454.144	-48.78
454.349	30.69
454.555	22.49
454.761	62.63
454.967	-34.85
455.173	-11.09
455.379	40.93
455.585	44.61
455.791	4.88
455.996	15.12
456.202	12.25
456.408	-44.68
456.614	41.74
456.819	-40.17
457.025	0.79
457.231	35.19
457.437	-82.77
457.642	22.08
457.848	52.39
458.054	24.95
458.259	41.74
458.465	19.63
458.671	-15.19
458.876	-15.19
459.082	27.41
459.287	-50.82
459.493	22.08
459.698	-20.51
459.904	62.63
460.109	18.81
460.315	20.04
460.52	-8.64
460.726	-29.12
460.931	47.89
461.137	16.76
461.342	5.7
461.548	2.83
461.753	31.91
461.958	-36.08
462.164	44.2
462.369	-27.89
462.574	32.32
462.78	-31.16
462.985	-44.27
463.19	17.17
463.396	30.69
463.601	34.78
463.806	-15.19
464.011	-58.61
464.216	-28.3
464.422	16.76
464.627	74.51
464.832	-6.18
465.037	-11.5
465.242	9.39
465.447	-14.78
465.653	-0.03
465.858	24.95
466.063	3.24
466.268	21.67
466.473	-45.91
466.678	117.52
466.883	30.28
467.088	25.77
467.293	39.29
467.498	22.9
467.703	-12.73
467.908	-42.22
468.113	-53.69
468.317	47.89
468.522	97.45
468.727	10.62
468.932	-44.27
469.137	-21.74
469.342	-14.78
469.547	-2.9
469.751	48.71
469.956	84.75
470.161	1.6
470.366	32.73
470.57	49.94
470.775	42.15
470.98	51.17
471.185	-7.82
471.389	2.83
471.594	8.57
471.799	-20.92
472.003	72.05
472.208	73.69
472.412	1.19
472.617	-53.69
472.822	-18.88
473.026	19.22
473.231	20.86
473.435	-30.75
473.64	-13.55
473.844	8.98
474.049	15.94
474.253	-17.24
474.458	-18.47
474.662	-1.26
474.866	-10.27
475.071	24.95
475.275	-17.65
475.48	19.22
475.684	15.12
475.888	-22.15
476.093	32.73
476.297	36.01
476.501	11.02
476.706	-14.37
476.91	4.06
477.114	-6.18
477.318	23.72
477.523	-4.13
477.727	40.11
477.931	-47.96
478.135	-0.85
478.339	1.19
478.543	-46.73
478.748	-59.43
478.952	20.04
479.156	-23.79
479.36	76.56
479.564	-13.14
479.768	26.18
479.972	-19.69
480.176	-27.07
480.38	-31.57
480.584	37.24
480.788	-43.04
480.992	-30.75
481.196	5.29
481.4	56.49
481.604	-0.85
481.808	75.74
482.012	-39.36
482.215	13.48
482.419	-6.18
482.623	-5.77
482.827	51.98
483.031	65.09
483.235	0.38
483.438	-43.45
483.642	12.25
483.846	14.71
484.05	24.95
484.253	-59.02
484.457	-18.47
484.661	19.63
484.864	-9.45
485.068	18.4
485.272	26.59
485.475	18.81
485.679	42.56
485.883	36.42
486.086	8.57
486.29	20.45
486.493	0.79
486.697	53.62
486.9	-64.75
487.104	8.98
487.307	-45.91
487.511	13.07
487.714	-16.01
487.918	-2.08
488.121	3.65
488.325	-19.29
488.528	-64.34
488.731	23.72
488.935	-1.26
489.138	42.15
489.341	-12.73
489.545	68.78
489.748	9.39
489.951	49.53
490.155	144.55
490.358	167.08
490.561	100.32
490.764	96.63
490.967	131.45
491.171	125.3
491.374	79.43
491.577	44.2
491.78	-29.93
491.983	-10.68
492.186	1.19
492.39	-6.18
492.593	22.49
492.796	22.9
492.999	-9.86
493.202	59.36
493.405	34.37
493.608	8.16
493.811	26.59
494.014	-48.78
494.217	-37.72
494.42	63.04
494.623	110.15
494.826	20.04
495.029	-34.44
495.231	-15.19
495.434	35.6
495.637	1.19
495.84	22.9
496.043	-21.74
496.246	29.05
496.448	-11.5
496.651	47.89
496.854	-65.57
497.057	15.12
497.259	84.75
497.462	27.41
497.665	-21.33
497.868	-24.61
498.07	-13.96
498.273	65.5
498.476	44.61
498.678	29.46
498.881	49.53
499.083	-24.61
499.286	73.28
499.489	194.11
499.691	524.25
499.894	616.81
500.096	693.41
500.299	565.61
500.501	344.02
500.704	66.32
500.906	54.03
501.109	49.94
501.311	15.94
501.513	12.66
501.716	-28.71
501.918	6.93
502.121	76.56
502.323	-52.05
502.525	-36.49
502.728	65.5
502.93	-54.51
503.132	-38.54
503.334	-6.18
503.537	54.44
503.739	-24.2
503.941	-53.69
504.143	-40.99
504.346	6.93
504.548	-4.54
504.75	2.01
504.952	-18.06
505.154	-17.65
505.356	18.4
505.558	-31.16
505.761	42.15
505.963	-7.82
506.165	72.05
506.367	72.87
506.569	88.44
506.771	65.09
506.973	22.08
507.175	-49.59
507.377	130.22
507.579	29.87
507.781	36.42
507.982	15.53
508.184	20.04
508.386	88.44
508.588	-9.45
508.79	17.17
508.992	12.25
509.194	67.55
509.395	70.83
509.597	11.43
509.799	1.6
510.001	57.31
510.203	15.53
510.404	-31.16
510.606	-22.15
510.808	6.93
511.009	-47.96
511.211	-6.18
511.413	118.75
511.614	23.31
511.816	43.79
512.018	22.49
512.219	34.37
512.421	-0.03
512.622	-12.32
512.824	-31.57
513.025	-28.3
513.227	-0.44
513.428	81.88
513.63	-19.69
513.831	18.4
514.033	45.84
514.234	-2.08
514.436	76.56
514.637	27
514.838	29.46
515.04	-3.31
515.241	-55.33
515.443	96.22
515.644	4.47
515.845	8.57
516.046	-23.79
516.248	88.44
516.449	71.64
516.65	-31.57
516.851	-11.91
517.053	62.63
517.254	-33.21
517.455	47.07
517.656	23.31
517.857	-45.5
518.059	58.54
518.26	31.91
518.461	4.88
518.662	12.66
518.863	-0.85
519.064	-15.6
519.265	-21.74
519.466	-4.54
519.667	22.49
519.868	105.23
520.069	-60.24
520.27	-15.6
520.471	-0.44
520.672	13.48
520.873	4.06
521.074	33.96
521.275	-18.47
521.476	47.48
521.676	75.33
521.877	-18.06
522.078	101.55
522.279	27.82
522.48	3.24
522.681	61.81
522.881	55.26
523.082	-27.89
523.283	-0.03
523.483	-15.6
523.684	27.82
523.885	29.05
524.086	20.04
524.286	-33.62
524.487	-66.39
524.687	6.11
524.888	-64.75
525.089	3.24
525.289	-29.52
525.49	-18.06
525.69	28.64
525.891	63.04
526.091	14.3
526.292	-62.7
526.492	26.18
526.693	20.45
526.893	-19.69
527.094	6.11
527.294	-7
527.495	-37.72
527.695	27.41
527.895	-18.47
528.096	-0.85
528.296	-20.92
528.496	-2.9
528.697	3.24
528.897	37.24
529.097	-48.37
529.298	15.53
529.498	-28.71
529.698	-58.61
529.898	-38.54
530.098	-67.21
530.299	11.43
530.499	6.11
530.699	-15.19
530.899	-56.56
531.099	42.97
531.299	5.29
531.499	-5.36
531.7	54.44
531.9	96.63
532.1	-3.31
532.3	5.7
532.5	67.96
532.7	42.56
532.9	-5.77
533.1	-45.09
533.3	-35.26
533.5	55.26
533.699	51.57
533.899	38.88
534.099	-2.08
534.299	53.21
534.499	49.94
534.699	-38.13
534.899	11.84
535.098	32.32
535.298	4.06
535.498	38.47
535.698	32.73
535.898	24.95
536.097	-0.85
536.297	20.86
536.497	-1.26
536.696	-5.36
536.896	-47.55
537.096	-10.68
537.295	54.85
537.495	-20.51
537.695	12.25
537.894	-0.44
538.094	24.54
538.293	12.66
538.493	28.64
538.692	116.29
538.892	57.72
539.091	-39.36
539.291	24.95
539.49	-25.84
539.69	40.52
539.889	2.01
540.089	-62.7
540.288	16.76
540.487	-36.08
540.687	56.08
540.886	18.81
541.085	-36.49
541.285	-20.92
541.484	23.31
541.683	65.09
541.883	11.43
542.082	31.91
542.281	36.42
542.48	22.08
542.68	33.96
542.879	13.48
543.078	-34.44
543.277	-6.59
543.476	-48.37
543.675	-20.92
543.874	38.47
544.074	1.19
544.273	-40.17
544.472	-9.86
544.671	81.88
544.87	29.87
545.069	64.68
545.268	60.18
545.467	61.81
545.666	15.53
545.865	-2.9
546.064	117.93
546.263	-2.08
546.462	-69.26
546.66	4.06
546.859	6.52
547.058	23.31
547.257	17.17
547.456	22.9
547.655	4.47
547.853	31.5
548.052	-4.54
548.251	-35.26
548.45	63.45
548.648	42.97
548.847	-25.43
549.046	3.65
549.245	-45.5
549.443	-24.61
549.642	43.79
549.841	51.57
550.039	45.84
550.238	-19.69
550.436	19.22
550.635	20.04
550.834	31.91
551.032	6.52
551.231	-43.04
551.429	-13.96
551.628	-45.91
551.826	-6.59
552.025	-24.61
552.223	-41.4
552.421	-35.67
552.62	64.27
552.818	35.19
553.017	-0.85
553.215	-11.5
553.413	38.47
553.612	-1.67
553.81	26.18
554.008	-43.45
554.207	66.73
554.405	17.99
554.603	22.49
554.801	6.93
555	79.84
555.198	55.67
555.396	0.38
555.594	8.16
555.792	8.16
555.991	-15.6
556.189	61
556.387	83.52
556.585	-7
556.783	61
556.981	-15.19
557.179	117.52
557.377	17.58
557.575	42.15
557.773	66.32
557.971	11.43
558.169	-7.41
558.367	22.08
558.565	6.93
558.763	-41.81
558.961	4.47
559.159	-55.74
559.357	49.53
559.554	-1.26
559.752	57.31
559.95	-48.78
560.148	1.6
560.346	-10.27
560.544	44.61
560.741	3.24
560.939	-9.45
561.137	51.57
561.334	-25.84
561.532	35.19
561.73	6.52
561.928	24.54
562.125	37.24
562.323	21.67
562.52	-57.79
562.718	28.64
562.916	94.58
563.113	-15.6
563.311	-1.26
563.508	42.15
563.706	-5.36
563.903	27.82
564.101	61.4
564.298	104.82
564.496	38.88
564.693	46.25
564.891	-19.69
565.088	91.71
565.285	-1.67
565.483	-20.92
565.68	35.6
565.878	50.35
566.075	49.94
566.272	0.38
566.469	-44.68
566.667	-9.45
566.864	7.75
567.061	22.49
567.259	40.11
567.456	19.22
567.653	-17.65
567.85	-19.69
568.047	9.39
568.244	11.84
568.442	-72.53
568.639	27.41
568.836	-39.76
569.033	-3.72
569.23	1.6
569.427	-10.27
569.624	-7
569.821	10.21
570.018	-25.02
570.215	-10.27
570.412	22.49
570.609	-46.73
570.806	40.93
571.003	-18.47
571.2	23.72
571.397	71.24
571.594	-8.64
571.791	14.71
571.987	-2.49
572.184	-7.41
572.381	18.81
572.578	42.56
572.775	11.02
572.971	-30.34
573.168	-0.03
573.365	23.72
573.562	-19.29
573.758	31.09
573.955	-13.96
574.152	-42.22
574.348	35.19
574.545	31.91
574.742	25.36
574.938	83.93
575.135	-16.83
575.331	9.8
575.528	-7.41
575.725	-41.81
575.921	-14.78
576.118	-19.69
576.314	-31.16
576.511	-17.65
576.707	29.46
576.903	-27.89
577.1	-70.07
577.296	-0.03
577.493	1.6
577.689	-30.75
577.885	35.6
578.082	-27.89
578.278	45.02
578.474	1.6
578.671	11.43
578.867	-8.23
579.063	-38.13
579.26	-70.07
579.456	80.66
579.652	-20.51
579.848	-13.55
580.044	-32.39
580.241	-24.61
580.437	37.65
580.633	47.48
580.829	23.31
581.025	31.91
581.221	3.24
581.417	6.52
581.613	14.71
581.809	88.44
582.005	18.81
582.201	19.22
582.397	-13.96
582.593	15.94
582.789	48.71
582.985	-22.97
583.181	41.74
583.377	62.63
583.573	-11.09
583.769	-7.82
583.965	-4.54
584.161	-1.67
584.357	67.96
584.552	-22.15
584.748	15.94
584.944	32.32
585.14	146.19
585.335	683.99
585.531	3041.61
585.727	5898.53
585.923	7130.17
586.118	8737.42
586.314	7981.31
586.51	4229.84
586.705	1591.65
586.901	791.71
587.097	457.07
587.292	374.33
587.488	255.14
587.683	198.21
587.879	95.4
588.074	110.15
588.27	22.9
588.465	30.69
588.661	125.71
588.856	43.79
589.052	6.93
589.247	41.33
589.443	-11.09
589.638	108.51
589.833	-11.91
590.029	36.01
590.224	4.88
590.419	38.47
590.615	-24.2
590.81	29.87
591.005	-20.51
591.201	38.06
591.396	24.95
591.591	24.54
591.786	63.86
591.981	23.72
592.177	-34.03
592.372	-52.46
592.567	-18.88
592.762	-2.49
592.957	-13.14
593.152	-29.12
593.347	3.24
593.543	11.43
593.738	8.16
593.933	47.48
594.128	73.69
594.323	-7.82
594.518	13.48
594.713	-18.47
594.908	-12.73
595.103	26.59
595.297	26.18
595.492	61.4
595.687	-29.52
595.882	46.66
596.077	14.3
596.272	-11.91
596.467	34.78
596.661	24.54
596.856	146.6
597.051	24.95
597.246	61.4
597.441	43.79
597.635	80.25
597.83	29.46
598.025	17.58
598.219	2.42
598.414	21.26
598.609	24.13
598.803	-52.05
598.998	-11.09
599.193	6.52
599.387	7.34
599.582	-7
599.776	16.76
599.971	-16.83
600.165	0.79
600.36	-9.45
600.554	-8.64
600.749	-6.18
600.943	-25.02
601.138	26.59
601.332	31.91
601.526	49.94
601.721	-17.65
601.915	20.86
602.11	-27.89
602.304	75.33
602.498	-29.52
602.693	-19.69
602.887	26.18
603.081	-20.1
603.275	85.57
603.47	-44.68
603.664	18.4
603.858	-18.88
604.052	26.59
604.246	90.49
604.441	43.79
604.635	6.52
604.829	31.91
605.023	16.76
605.217	89.26
605.411	-40.17
605.605	70.01
605.799	61.81
605.993	62.22
606.187	6.93
606.381	68.78
606.575	23.31
606.769	16.76
606.963	-7.41
607.157	42.56
607.351	-7.82
607.545	-34.03
607.739	22.49
607.933	-15.6
608.126	9.39
608.32	19.63
608.514	-4.13
608.708	5.29
608.902	5.29
609.095	27.41
609.289	8.16
609.483	27.82
609.677	54.03
609.87	54.03
610.064	13.48
610.258	38.47
610.451	140.87
610.645	45.43
610.839	10.21
611.032	21.26
611.226	-1.67
611.419	-22.56
611.613	-36.9
611.806	-29.12
612	15.94
612.193	20.86
612.387	-14.78
612.58	41.33
612.774	81.88
612.967	52.39
613.161	-16.83
613.354	43.79
613.548	40.52
613.741	36.42
613.934	4.47
614.128	-31.16
614.321	22.49
614.514	72.05
614.707	-2.49
614.901	22.9
615.094	29.05
615.287	18.81
615.48	12.66
615.674	16.35
615.867	7.34
616.06	49.53
616.253	4.06
616.446	-20.92
616.639	11.02
616.833	42.56
617.026	29.87
617.219	10.62
617.412	-13.14
617.605	63.45
617.798	67.55
617.991	-36.9
618.184	16.35
618.377	27.41
618.57	25.36
618.763	9.39
618.956	58.13
619.149	-19.29
619.341	-8.64
619.534	-22.97
619.727	33.14
619.92	19.22
620.113	89.26
620.306	40.93
620.498	4.06
620.691	47.89
620.884	15.53
621.077	-11.5
621.269	-8.23
621.462	34.78
621.655	-9.05
621.848	13.89
622.04	33.96
622.233	-0.85
622.425	6.11
622.618	-4.95
622.811	-20.51
623.003	5.29
623.196	84.75
623.388	56.08
623.581	-4.95
623.773	22.9
623.966	58.95
624.158	-13.96
624.351	22.9
624.543	68.37
624.736	23.31
624.928	72.46
625.121	-15.6
625.313	61.4
625.505	-47.96
625.698	54.44
625.89	26.18
626.082	14.71
626.275	11.43
626.467	22.9
626.659	4.47
626.851	90.49
627.044	19.63
627.236	19.63
627.428	4.47
627.62	43.79
627.812	55.26
628.004	-29.93
628.197	51.98
628.389	-12.32
628.581	47.48
628.773	17.58
628.965	-12.73
629.157	0.38
629.349	-13.55
629.541	28.23
629.733	48.3
629.925	11.02
630.117	3.24
630.309	-33.21
630.501	27.41
630.693	23.72
630.885	-7.82
631.077	-29.12
631.268	12.25
631.46	24.13
631.652	-12.32
631.844	15.94
632.036	2.01
632.228	55.67
632.419	13.07
632.611	-25.02
632.803	5.29
632.995	56.49
633.186	-19.29
633.378	42.97
633.57	42.56
633.761	9.8
633.953	19.22
634.144	-20.51
634.336	-4.54
634.528	41.33
634.719	-56.56
634.911	6.52
635.102	-43.45
635.294	-43.45
635.485	54.03
635.677	14.71
635.868	-64.34
636.06	25.77
636.251	4.06
636.443	8.16
636.634	14.3
636.825	17.17
637.017	-44.68
637.208	-4.95
637.399	17.17
637.591	68.78
637.782	-15.6
637.973	23.31
638.165	-7.41
638.356	85.16
638.547	16.76
638.738	4.06
638.929	53.21
639.121	33.96
639.312	-30.75
639.503	-40.17
639.694	-6.59
639.885	37.65
640.076	-36.49
640.267	-20.1
640.458	22.08
640.649	-32.39
640.841	-68.85
641.032	56.49
641.223	85.57
641.414	2.01
641.604	-31.98
641.795	-17.65
641.986	-13.14
642.177	-5.36
642.368	-5.77
642.559	87.62
642.75	-74.58
642.941	11.43
643.132	72.05
643.322	-22.97
643.513	-30.75
643.704	-11.5
643.895	45.43
644.085	-8.64
644.276	-29.12
644.467	31.5
644.658	34.37
644.848	35.19
645.039	-20.92
645.23	3.24
645.42	-47.55
645.611	-6.18
645.801	53.21
645.992	-27.89
646.183	21.67
646.373	34.78
646.564	-25.84
646.754	29.46
646.945	25.77
647.135	68.78
647.326	2.42
647.516	77.79
647.707	61.81
647.897	40.11
648.087	-24.2
648.278	59.77
648.468	40.52
648.658	-2.49
648.849	-29.93
649.039	39.7
649.229	3.24
649.42	13.07
649.61	32.73
649.8	-4.95
649.99	13.89
650.181	26.18
650.371	43.38
650.561	-15.19
650.751	65.91
650.941	-42.22
651.131	-46.73
651.321	17.58
651.512	1.6
651.702	7.75
651.892	9.39
652.082	36.01
652.272	36.42
652.462	47.89
652.652	-41.4
652.842	-2.08
653.032	-17.65
653.222	-45.09
653.412	-0.85
653.601	-8.64
653.791	42.15
653.981	29.46
654.171	32.73
654.361	45.84
654.551	-4.13
654.741	-27.48
654.93	28.23
655.12	23.31
655.31	29.87
655.5	-13.14
655.689	-70.07
655.879	73.28
656.069	-21.33
656.258	12.25
656.448	14.71
656.638	44.2
656.827	81.48
657.017	-20.51
657.207	45.84
657.396	-15.19
657.586	-8.64
657.775	111.38
657.965	-36.49
658.154	48.3
658.344	20.04
658.533	-12.73
658.723	-29.52
658.912	67.55
659.102	-73.35
659.291	-18.47
659.48	-9.86
659.67	29.05
659.859	-13.14
660.048	20.45
660.238	33.55
660.427	-2.9
660.616	-89.74
660.806	102.36
660.995	8.57
661.184	67.96
661.373	-44.27
661.562	35.19
661.752	-70.07
661.941	18.81
662.13	-0.85
662.319	96.22
662.508	53.62
662.697	94.99
662.886	22.9
663.075	15.53
663.264	-79.5
663.453	78.2
663.643	-6.18
663.832	40.11
664.02	20.04
664.209	30.28
664.398	42.15
664.587	33.14
664.776	84.75
664.965	8.16
665.154	-16.42
665.343	84.75
665.532	90.9
665.721	378.02
665.909	1111.19
666.098	1680.94
666.287	2217.51
666.476	1997.96
666.664	1457.71
666.853	852.74
667.042	444.38
667.231	221.56
667.419	99.91
667.608	63.45
667.797	49.53
667.985	101.55
668.174	13.07
668.362	48.71
668.551	51.17
668.739	47.48
668.928	-15.19
669.117	15.12
669.305	22.49
669.494	69.6
669.682	49.94
669.87	-1.26
670.059	21.26
670.247	19.63
670.436	-0.44
670.624	42.97
670.812	7.75
671.001	90.9
671.189	-86.46
671.377	-1.67
671.566	15.53
671.754	16.35
671.942	-2.49
672.131	-61.47
672.319	59.36
672.507	84.34
672.695	6.93
672.883	27.82
673.072	22.08
673.26	65.5
673.448	10.21
673.636	-7
673.824	-36.49
674.012	54.03
674.2	67.96
674.388	41.74
674.576	58.13
674.764	34.78
674.952	53.62
675.14	16.76
675.328	65.5
675.516	-26.66
675.704	-23.79
675.892	65.09
676.08	-18.06
676.268	43.38
676.456	-54.51
676.643	-8.23
676.831	20.86
677.019	53.62
677.207	19.63
677.395	-25.02
677.582	39.7
677.77	45.43
677.958	103.59
678.146	-13.55
678.333	23.31
678.521	-47.14
678.709	12.25
678.896	-21.74
679.084	3.65
679.271	1.19
679.459	1.19
679.647	-3.31
679.834	100.32
680.022	-5.36
680.209	41.33
680.397	28.64
680.584	4.06
680.772	62.22
680.959	-15.19
681.147	5.7
681.334	-20.51
681.521	-38.54
681.709	87.62
681.896	6.11
682.083	-10.68
682.271	37.65
682.458	-9.86
682.645	36.01
682.833	47.07
683.02	17.17
683.207	4.88
683.394	10.21
683.582	38.47
683.769	61
683.956	-21.33
684.143	-31.16
684.33	15.12
684.517	-15.19
684.705	22.49
684.892	-7
685.079	101.14
685.266	37.65
685.453	8.16
685.64	38.06
685.827	-12.32
686.014	-1.26
686.201	29.46
686.388	-1.67
686.575	2.01
686.762	41.74
686.948	16.76
687.135	41.74
687.322	61.4
687.509	51.57
687.696	-13.14
687.883	11.84
688.07	-25.84
688.256	-3.31
688.443	-12.32
688.63	22.49
688.817	48.71
689.003	54.03
689.19	-45.91
689.377	-34.03
689.563	-35.67
689.75	12.25
689.937	-3.31
690.123	24.13
690.31	53.62
690.496	-11.5
690.683	6.52
690.869	-3.31
691.056	51.98
691.242	1.19
691.429	50.76
691.615	-49.59
691.802	-23.79
691.988	-28.3
692.175	-40.58
692.361	-28.71
692.548	40.52
692.734	10.62
692.92	-7.82
693.107	-33.62
693.293	-1.26
693.479	6.52
693.665	-32.39
693.852	-58.2
694.038	-3.72
694.224	88.44
694.41	20.04
694.597	6.52
694.783	51.98
694.969	-2.08
695.155	-47.96
695.341	63.45
695.527	-4.13
695.713	22.08
695.9	-46.32
696.086	-29.93
696.272	32.73
696.458	17.99
696.644	-36.08
696.83	45.43
697.016	6.11
697.202	65.91
697.387	-51.23
697.573	22.49
697.759	76.56
697.945	51.98
698.131	11.84
698.317	-18.47
698.503	38.06
698.689	-2.08
698.874	25.77
699.06	-27.07
699.246	-80.72
699.432	27.82
699.617	47.89
699.803	7.75
699.989	44.2
700.174	12.66
700.36	7.34
700.546	-19.29
700.731	-33.21
700.917	14.3
701.103	-11.09
701.288	-32.39
701.474	-5.77
701.659	16.35
701.845	-51.64
702.03	-3.31
702.216	72.87
702.401	151.52
702.587	-16.42
702.772	-4.95
702.958	-47.55
703.143	64.27
703.328	8.98
703.514	70.01
703.699	21.67
703.884	20.45
704.07	-10.68
704.255	204.76
704.44	581.18
704.626	1515.05
704.811	2344.48
704.996	2750.39
705.181	2590.24
705.366	2292.87
705.552	1551.1
705.737	717.98
705.922	447.65
706.107	312.08
706.292	232.62
706.477	207.22
706.662	98.27
706.847	77.79
707.032	42.56
707.217	61
707.402	61.4
707.587	24.95
707.772	-13.14
707.957	13.89
708.142	55.26
708.327	36.42
708.512	-26.66
708.697	15.94
708.882	-68.03
709.067	-3.31
709.252	-52.87
709.436	-12.32
709.621	-18.88
709.806	24.13
709.991	-24.2
710.175	9.39
710.36	26.59
710.545	9.39
710.73	21.26
710.914	18.81
711.099	5.7
711.284	49.53
711.468	-19.69
711.653	39.7
711.837	-31.57
712.022	63.86
712.206	-78.68
712.391	-1.26
712.576	34.78
712.76	44.2
712.944	30.69
713.129	37.24
713.313	1.6
713.498	22.08
713.682	-25.43
713.867	67.14
714.051	17.58
714.235	3.65
714.42	29.46
714.604	-41.81
714.788	6.11
714.973	-20.92
715.157	-27.48
715.341	-21.74
715.525	45.84
715.71	-5.36
715.894	-2.49
716.078	69.6
716.262	13.48
716.446	37.65
716.63	30.69
716.815	-21.33
716.999	17.17
717.183	-8.23
717.367	57.31
717.551	66.73
717.735	20.04
717.919	-26.25
718.103	18.4
718.287	25.77
718.471	-20.51
718.655	20.04
718.839	-25.43
719.023	25.77
719.207	50.35
719.39	85.98
719.574	67.55
719.758	13.89
719.942	-0.44
720.126	62.22
720.31	-31.98
720.493	45.84
720.677	-57.79
720.861	69.19
721.044	-38.54
721.228	-9.45
721.412	-38.54
721.596	9.39
721.779	5.29
721.963	-39.36
722.146	-19.69
722.33	25.36
722.514	-5.77
722.697	-4.13
722.881	27.41
723.064	-19.29
723.248	-21.33
723.431	2.42
723.615	-19.69
723.798	6.93
723.982	-56.15
724.165	-27.48
724.348	-13.14
724.532	66.73
724.715	-41.4
724.898	-44.68
725.082	-9.05
725.265	16.35
725.448	11.02
725.632	-42.22
725.815	38.47
725.998	45.84
726.181	9.39
726.365	98.68
726.548	224.42
726.731	274.39
726.914	186.33
727.097	186.33
727.28	76.97
727.463	57.72
727.647	92.12
727.83	9.39
728.013	44.61
728.196	61.81
728.379	15.94
728.562	36.01
728.745	6.52
728.928	11.02
729.111	-60.24
729.294	37.24
729.476	-23.79
729.659	15.94
729.842	58.13
730.025	-38.95
730.208	27.82
730.391	-14.37
730.574	-34.44
730.756	67.55
730.939	54.85
731.122	100.32
731.305	43.38
731.487	38.47
731.67	11.43
731.853	32.32
732.035	16.35
732.218	47.48
732.401	-6.59
732.583	38.06
732.766	11.84
732.948	-4.95
733.131	58.54
733.313	36.42
733.496	61
733.678	-12.32
733.861	-34.03
734.043	9.39
734.226	-46.32
734.408	29.05
734.591	24.95
734.773	20.86
734.956	-60.24
735.138	-35.67
735.32	-35.67
735.503	37.65
735.685	23.31
735.867	24.95
736.049	28.64
736.232	52.39
736.414	-73.35
736.596	-8.64
736.778	-4.54
736.961	-1.67
737.143	-18.06
737.325	-46.73
737.507	83.11
737.689	14.3
737.871	27
738.053	67.96
738.235	-17.65
738.417	43.38
738.599	12.25
738.781	13.89
738.963	-27.89
739.145	31.09
739.327	45.02
739.509	-52.05
739.691	-32.8
739.873	-6.59
740.055	4.06
740.237	48.71
740.419	34.37
740.601	40.52
740.782	-20.92
740.964	11.84
741.146	38.88
741.328	108.51
741.509	-17.65
741.691	-79.9
741.873	-21.33
742.055	56.9
742.236	57.31
742.418	63.04
742.6	27.82
742.781	-63.52
742.963	-38.54
743.144	-40.17
743.326	88.44
743.508	-0.44
743.689	-37.72
743.871	17.99
744.052	-49.59
744.234	25.77
744.415	-55.74
744.596	15.12
744.778	-23.79
744.959	36.42
745.141	-59.83
745.322	27.82
745.503	-32.8
745.685	71.24
745.866	-52.87
746.047	-22.15
746.229	20.04
746.41	33.55
746.591	2.83
746.772	30.69
746.954	-28.71
747.135	22.08
747.316	1.19
747.497	10.21
747.678	-8.23
747.859	-18.06
748.041	17.17
748.222	66.73
748.403	93.35
748.584	55.67
748.765	-14.37
748.946	0.38
749.127	-22.56
749.308	78.61
749.489	15.12
749.67	28.64
749.851	69.19
750.032	-90.96
750.212	11.02
750.393	18.4
750.574	-39.76
750.755	40.93
750.936	-22.97
751.117	-39.76
751.297	-41.81
751.478	20.86
751.659	-20.51
751.84	-6.18
752.02	29.87
752.201	-44.68
752.382	-32.8
752.562	-45.09
752.743	12.25
752.924	21.67
753.104	51.98
753.285	-51.23
753.466	32.73
753.646	-43.86
753.827	-2.9
754.007	-13.55
754.188	85.57
754.368	36.83
754.549	33.96
754.729	-16.83
754.909	-1.26
755.09	14.71
755.27	-28.71
755.451	20.04
755.631	-2.08
755.811	5.29
755.992	-47.55
756.172	32.32
756.352	38.88
756.533	0.38
756.713	-38.13
756.893	16.76
757.073	22.49
757.253	54.44
757.434	24.13
757.614	-31.98
757.794	37.65
757.974	-34.85
758.154	12.25
758.334	73.28
758.514	-15.6
758.694	31.09
758.875	32.32
759.055	56.08
759.235	23.31
759.415	-32.8
759.594	24.95
759.774	-13.55
759.954	6.93
760.134	-28.71
760.314	62.22
760.494	-6.18
760.674	58.95
760.854	-29.52
761.034	-36.9
761.213	-4.13
761.393	-0.85
761.573	2.83
761.753	23.31
761.932	21.26
762.112	61.4
762.292	1.19
762.472	-16.83
762.651	-18.88
762.831	26.18
763.01	50.35
763.19	-8.64
763.37	-0.44
763.549	69.6
763.729	30.28
763.908	-2.9
764.088	-1.26
764.267	-27.48
764.447	-7.41
764.626	-14.78
764.806	28.64
764.985	10.21
765.165	7.34
765.344	0.79
765.523	65.09
765.703	-9.45
765.882	60.59
766.061	-65.16
766.241	5.7
766.42	-10.27
766.599	45.02
766.779	18.4
766.958	10.62
767.137	-32.39
767.316	38.06
767.495	47.07
767.675	-11.91
767.854	36.01
768.033	94.58
768.212	40.52
768.391	-38.13
768.57	37.24
768.749	19.22
768.928	-64.34
769.107	12.25
769.286	-18.06
769.465	2.42
769.644	-6.18
769.823	32.73
770.002	34.37
770.181	-26.66
770.36	24.95
770.539	7.75
770.718	35.6
770.896	11.02
771.075	-7.82
771.254	-0.85
771.433	56.08
771.612	-9.05
771.79	4.47
771.969	-3.31
772.148	24.54
772.326	-34.03
772.505	6.52
772.684	52.39
772.862	-18.88
773.041	-24.2
773.22	-20.92
773.398	33.14
773.577	-14.37
773.755	30.28
773.934	31.91
774.112	-47.55
774.291	34.78
774.469	-10.27
774.648	34.37
774.826	-23.79
775.005	-30.34
775.183	-2.08
775.362	3.24
775.54	118.34
775.718	95.4
775.897	76.56
776.075	-7.41
776.253	13.89
776.432	54.85
776.61	7.34
776.788	14.3
776.966	-20.1
777.144	19.22
777.323	-17.65
777.501	6.52
777.679	20.86
777.857	11.02
778.035	-11.91
778.213	-20.1
778.391	-1.26
778.57	-65.57
778.748	12.66
778.926	54.44
779.104	-9.45
779.282	42.56
779.46	42.97
779.638	2.42
779.815	29.05
779.993	17.58
780.171	-49.59
780.349	57.72
780.527	9.8
780.705	-35.67
780.883	54.44
781.061	142.91
781.238	-23.79
781.416	19.22
781.594	62.22
781.772	-84.41
781.949	-8.64
782.127	22.9
782.305	14.71
782.482	-57.79
782.66	-55.74
782.838	-59.02
783.015	77.38
783.193	-10.27
783.37	-45.91
783.548	42.15
783.726	3.65
783.903	-3.31
784.081	-45.5
784.258	62.22
784.436	-1.26
784.613	-21.33
784.79	41.74
784.968	97.04
785.145	-77.45
785.323	-15.6
785.5	38.06
785.677	-45.09
785.855	-83.59
786.032	59.77
786.209	-19.69
786.386	10.62
786.564	-13.14
786.741	33.55
786.918	-11.5
787.095	-44.68
787.273	17.99
787.45	-38.54
787.627	52.39
787.804	-77.86
787.981	42.56
788.158	48.71
788.335	-38.95
788.512	6.93
788.689	27.82
788.866	-31.16
789.043	66.73
789.22	27
789.397	-13.14
789.574	21.67
789.751	22.08
789.928	-7.82
790.105	22.08
790.282	20.45
790.459	15.53
790.635	-6.59
790.812	-61.47
790.989	-8.64
791.166	22.9
791.343	22.08
791.519	40.52
791.696	72.05
791.873	-45.09
792.049	-23.38
792.226	7.75
792.403	51.17
792.579	39.7
792.756	67.55
792.933	51.57
793.109	29.46
793.286	2.42
793.462	-0.03
793.639	38.47
793.815	-56.97
793.992	-26.66
794.168	34.37
794.345	-19.29
794.521	89.26
794.698	-78.68
794.874	10.21
795.05	35.19
795.227	-9.86
795.403	36.01
795.579	66.32
795.756	16.35
795.932	26.18
796.108	-11.91
796.285	19.22
796.461	56.49
796.637	4.88
796.813	48.71
796.989	-6.18
797.166	-12.73
797.342	-31.98
797.518	-12.32
797.694	2.01
797.87	67.55
798.046	1.6
798.222	38.47
798.398	-77.45
798.574	28.64
798.75	-18.06
798.926	-18.88
799.102	-62.29
799.278	5.29
799.454	40.11
799.63	-24.61
799.806	16.35
799.982	16.76
800.157	-39.76
800.333	45.84
800.509	22.49
800.685	-37.72
800.861	81.48
801.036	18.4
801.212	-16.01
801.388	85.57
801.564	6.52
801.739	61
801.915	-13.14
802.091	-9.45
802.266	27
802.442	-73.76
802.617	-12.32
802.793	157.66
802.969	65.5
803.144	-11.09
803.32	-50.82
803.495	49.12
803.671	3.65
803.846	18.4
804.022	-33.21
804.197	24.54
804.372	26.18
804.548	-15.19
804.723	-34.85
804.898	-19.69
805.074	-54.51
805.249	4.06
805.424	73.28
805.6	-33.62
805.775	77.38
805.95	95.4
806.125	11.02
806.301	-3.31
806.476	-17.65
806.651	-4.54
806.826	8.16
807.001	60.18
807.176	29.87
807.352	-2.49
807.527	61.4
807.702	62.63
807.877	-18.47
808.052	-58.61
808.227	8.57
808.402	9.8
808.577	49.53
808.752	-17.24
808.927	21.26
809.102	33.14
809.276	-3.72
809.451	27.41
809.626	4.47
809.801	-44.27
809.976	23.31
810.151	-52.05
810.325	51.57
810.5	-34.44
810.675	84.34
810.85	9.8
811.024	33.55
811.199	-66.39
811.374	32.32
811.548	0.79
811.723	-25.84
811.898	-35.67
812.072	17.99
812.247	61.81
812.421	32.73
812.596	-3.72
812.77	72.87
812.945	49.12
813.119	39.7
813.294	52.8
813.468	-9.05
813.643	49.53
813.817	4.88
813.992	20.45
814.166	-12.32
814.34	-29.93
814.515	8.57
814.689	-68.85
814.863	-37.72
815.038	-14.78
815.212	5.29
815.386	-9.86
815.56	7.75
815.735	-24.61
815.909	31.09
816.083	40.93
816.257	91.31
816.431	23.31
816.605	40.52
816.78	13.07
816.954	59.77
817.128	26.59
817.302	40.93
817.476	13.07
817.65	13.48
817.824	45.84
817.998	15.12
818.172	-26.66
818.346	-68.44
818.52	-4.13
818.694	-25.84
818.867	106.05
819.041	47.07
819.215	-4.13
819.389	-4.54
819.563	38.88
819.737	-27.89
819.91	-34.85
820.084	50.35
820.258	20.04
820.432	-7
820.605	62.63
820.779	-70.89
820.953	-0.85
821.126	21.26
821.3	-18.06
821.473	-11.5
821.647	8.98
821.821	71.64
821.994	4.88
822.168	38.88
822.341	31.5
822.515	-17.24
822.688	15.53
822.862	-42.22
823.035	2.01
823.208	-18.88
823.382	25.36
823.555	38.47
823.729	36.83
823.902	4.88
824.075	9.39
824.249	17.99
824.422	13.89
824.595	13.07
824.768	69.19
824.942	0.38
825.115	40.52
825.288	-61.47
825.461	27.82
825.634	-3.72
825.808	8.16
825.981	-57.79
826.154	45.02
826.327	19.63
826.5	35.6
826.673	-21.33
826.846	-10.27
827.019	-19.69
827.192	-17.65
827.365	1.19
827.538	67.14
827.711	-29.52
827.884	-26.66
828.057	89.26
828.23	31.09
828.403	-27.48
828.575	8.57
828.748	-83.18
828.921	11.02
829.094	-11.91
829.267	74.1
829.439	-10.68
829.612	45.02
829.785	-84.82
829.957	-51.23
830.13	-29.52
830.303	-52.46
830.475	-13.14
830.648	-19.29
830.821	11.84
830.993	-4.54
831.166	45.02
831.338	22.08
831.511	-16.01
831.683	-27.89
831.856	20.45
832.028	9.8
832.201	9.8
832.373	-25.02
832.546	-8.64
832.718	-31.98
832.891	-9.86
833.063	18.81
833.235	30.69
833.408	-7.82
833.58	-4.13
833.752	-21.74
833.924	32.73
834.097	95.4
834.269	46.25
834.441	-38.95
834.613	8.57
834.785	-29.12
834.958	41.33
835.13	47.89
835.302	-22.97
835.474	33.55
835.646	-17.24
835.818	-20.1
835.99	-8.23
836.162	31.5
836.334	39.7
836.506	94.99
836.678	73.28
836.85	28.23
837.022	-25.02
837.194	-13.55
837.366	14.71
837.538	-36.9
837.71	24.95
837.882	18.4
838.053	36.83
838.225	-46.32
838.397	49.94
838.569	-37.72
838.74	-28.71
838.912	149.88
839.084	11.02
839.256	44.61
839.427	7.75
839.599	3.65
839.771	1.6
839.942	-28.3
840.114	-15.6
840.285	-8.23
840.457	78.61
840.628	39.29
840.8	20.04
840.971	51.57
841.143	3.65
841.314	-24.2
841.486	101.55
841.657	44.61
841.829	5.7
842	23.72
842.171	-16.01
842.343	53.21
842.514	-51.23
842.686	-12.32
842.857	-6.18
843.028	-8.64
843.199	-48.78
843.371	31.09
843.542	-14.37
843.713	78.61
843.884	-26.66
844.055	3.24
844.227	42.97
844.398	17.17
844.569	15.94
844.74	36.83
844.911	-43.86
845.082	29.46
845.253	-15.6
845.424	4.88
845.595	11.02
845.766	55.67
845.937	36.83
846.108	-18.06
846.279	55.26
846.45	33.14
846.621	20.86
846.792	72.05
846.962	85.57
847.133	3.65
847.304	-16.42
847.475	7.75
847.646	18.4
847.816	81.48
847.987	4.47
848.158	-7
848.329	-7
848.499	117.52
848.67	51.98
848.841	54.44
849.011	40.93
849.182	-8.64
849.352	12.66
849.523	-36.08
849.693	26.18
849.864	35.6
850.034	-17.65
850.205	27.41
850.375	-65.16
850.546	-53.69
850.716	4.88
850.887	23.72
851.057	-76.22
851.228	-74.58
851.398	-108.99
851.568	0.38
851.739	9.8
851.909	47.48
852.079	-27.07
852.249	2.42
852.42	76.97
852.59	8.16
852.76	28.23
852.93	101.55
853.1	11.43
853.271	71.24
853.441	18.4
853.611	13.89
853.781	-38.13
853.951	88.03
854.121	-33.62
854.291	43.38
854.461	-36.49
854.631	24.95
854.801	-26.66
854.971	54.03
855.141	54.03
855.311	-22.56
855.481	76.97
855.651	-63.93
855.821	-31.57
855.991	58.13
856.16	-59.83
856.33	14.71
856.5	127.35
856.67	24.54
856.84	-22.15
857.009	12.66
857.179	78.2
857.349	7.34
857.518	-11.09
857.688	4.88
857.858	-34.44
858.027	22.49
858.197	16.35
858.367	51.17
858.536	6.11
858.706	8.57
858.875	20.86
859.045	25.36
859.214	3.24
859.384	70.42
859.553	-15.6
859.723	1.6
859.892	2.42
860.061	22.49
860.231	-20.1
860.4	40.11
860.569	-24.61
860.739	-10.68
860.908	17.58
861.077	-19.69
861.247	-13.14
861.416	61
861.585	-9.86
861.754	45.02
861.924	81.07
862.093	-23.38
862.262	50.76
862.431	4.47
862.6	36.83
862.769	6.11
862.938	-17.65
863.107	45.43
863.276	54.03
863.445	-12.32
863.614	-22.97
863.783	57.72
863.952	10.21
864.121	43.38
864.29	-20.92
864.459	-16.01
864.628	21.67
864.797	65.5
864.966	-40.99
865.135	-47.55
865.303	13.89
865.472	4.06
865.641	61.81
865.81	26.59
865.979	-36.08
866.147	32.32
866.316	-23.38
866.485	52.8
866.653	54.03
866.822	-41.4
866.991	21.67
867.159	-29.12
867.328	-34.03
867.496	29.87
867.665	-11.91
867.833	61.4
868.002	-18.06
868.17	73.69
868.339	-47.14
868.507	-33.21
868.676	74.1
868.844	49.53
869.013	-46.73
869.181	17.99
869.349	43.79
869.518	-16.01
869.686	25.36
869.854	38.47
870.023	17.99
870.191	18.4
870.359	-27.48
870.527	-5.77
870.695	17.99
870.864	60.18
871.032	-28.71
871.2	-58.2
871.368	-29.52
871.536	23.31
871.704	-73.35
871.872	-11.91
872.04	70.83
872.209	-25.84
872.377	-40.58
872.545	16.35
872.712	-51.23
872.88	25.77
873.048	-27.07
873.216	51.17
873.384	-13.96
873.552	78.2
873.72	-55.33
873.888	42.97
874.056	17.58
874.223	4.06
874.391	-13.55
874.559	10.62
874.727	54.03
874.894	7.34
875.062	49.53
875.23	-16.01
875.398	100.32
875.565	14.3
875.733	2.42
875.9	-22.97
876.068	59.77
876.236	50.35
876.403	-4.95
876.571	-43.45
876.738	94.17
876.906	57.31
877.073	-60.24
877.241	-2.9
877.408	28.64
877.576	-12.73
877.743	16.35
877.91	-14.37
878.078	24.54
878.245	-52.05
878.412	-49.19
878.58	25.77
878.747	8.57
878.914	0.38
879.082	24.13
879.249	-51.64
879.416	63.45
879.583	-21.74
879.75	2.01
879.918	-3.72
880.085	-40.99
880.252	33.55
880.419	6.11
880.586	19.63
880.753	73.28
880.92	5.29
881.087	18.81
881.254	66.32
881.421	-30.75
881.588	9.39
881.755	-50.41
881.922	-5.36
882.089	42.15
882.256	-41.4
882.423	66.32
882.589	4.47
882.756	-25.43
882.923	-21.74
883.09	-23.79
883.257	-17.24
883.423	-1.26
883.59	45.84
883.757	5.29
883.924	72.46
884.09	63.86
884.257	15.53
884.424	60.18
884.59	26.18
884.757	5.7
884.923	24.13
885.09	-0.03
885.257	-17.65
885.423	-11.91
885.59	-69.67
885.756	8.16
885.923	-12.32
886.089	8.57
886.255	37.65
886.422	15.12
886.588	-26.66
886.755	20.86
886.921	49.94
887.087	-34.44
887.254	22.08
887.42	29.05
887.586	-57.38
887.752	-29.52
887.919	-3.72
888.085	32.73
888.251	26.18
888.417	7.34
888.583	8.16
888.75	-20.51
888.916	15.94
889.082	-45.09
889.248	27.82
889.414	67.55
889.58	-16.01
889.746	-16.01
889.912	-16.01
