Data from FLMT000111__1__14-23-53-057.txt Node

Date: Thu Oct 26 14:23:53 EDT 2023
User: Student
Spectrometer: FLMT00011
Trigger mode: 0
Integration Time (sec): 1.000000E-1
Scans to average: 5
Electric dark correction enabled: true
Nonlinearity correction enabled: false
Boxcar width: 0
XAxis mode: Wavelengths
Number of Pixels in Spectrum: 3648
>>>>>Begin Spectral Data<<<<<
171.25	-240.53
171.475	-240.53
171.699	-240.53
171.923	-212.27
172.147	22.43
172.371	137.52
172.595	-10.75
172.819	-23.04
173.043	17.1
173.267	-15.26
173.491	41.68
173.715	-4.61
173.939	-11.57
174.163	35.53
174.387	-59.49
174.611	-74.24
174.835	-32.87
175.059	7.27
175.283	24.06
175.507	-2.56
175.73	24.88
175.954	-6.66
176.178	14.23
176.402	48.64
176.626	-44.75
176.85	-84.07
177.073	-52.94
177.297	-1.74
177.521	1.95
177.745	-1.74
177.969	8.5
178.192	19.56
178.416	1.95
178.64	-9.93
178.863	3.17
179.087	-14.85
179.311	-0.51
179.534	-28.77
179.758	-44.34
179.982	34.3
180.205	-17.71
180.429	-2.15
180.653	-22.22
180.876	18.74
181.1	-0.92
181.323	19.15
181.547	11.37
181.77	33.07
181.994	8.5
182.217	17.92
182.441	51.1
182.664	49.87
182.888	42.5
183.111	38.4
183.335	-18.12
183.558	78.54
183.782	47.82
184.005	34.3
184.228	3.17
184.452	29.8
184.675	-25.91
184.899	17.92
185.122	5.63
185.345	-23.04
185.569	-33.28
185.792	46.59
186.015	-74.65
186.238	-25.5
186.462	63.38
186.685	149.81
186.908	28.98
187.131	16.69
187.355	-10.34
187.578	19.56
187.801	10.96
188.024	1.54
188.247	15.87
188.471	-8.7
188.694	16.28
188.917	-16.08
189.14	6.04
189.363	51.1
189.586	-29.59
189.809	65.02
190.032	53.14
190.255	6.45
190.478	5.63
190.701	-16.08
190.924	45.36
191.147	-0.1
191.37	8.91
191.593	90.42
191.816	7.27
192.039	22.43
192.262	8.09
192.485	-0.92
192.708	25.7
192.931	27.75
193.154	70.35
193.377	27.34
193.6	53.55
193.822	-11.98
194.045	-21.81
194.268	37.58
194.491	99.84
194.714	46.18
194.936	31.85
195.159	-22.63
195.382	53.14
195.605	6.45
195.827	19.56
196.05	14.23
196.273	-5.02
196.495	48.64
196.718	65.02
196.941	-40.24
197.163	18.74
197.386	67.48
197.609	-63.59
197.831	-31.64
198.054	105.16
198.277	63.38
198.499	-36.15
198.722	-17.31
198.944	-2.15
199.167	-43.52
199.389	-4.2
199.612	-18.53
199.834	137.93
200.057	64.61
200.279	40.86
200.502	-47.21
200.724	-18.94
200.947	9.73
201.169	28.98
201.391	-9.93
201.614	86.32
201.836	42.9
202.059	43.31
202.281	-35.74
202.503	-52.53
202.726	-9.93
202.948	1.95
203.17	-26.73
203.393	-35.33
203.615	37.58
203.837	0.31
204.059	33.07
204.282	30.62
204.504	15.87
204.726	-30.41
204.948	-53.76
205.17	61.34
205.393	-13.62
205.615	-30
205.837	10.14
206.059	33.89
206.281	64.2
206.503	33.48
206.725	19.97
206.947	-30.82
207.17	6.04
207.392	-3.38
207.614	19.15
207.836	-16.08
208.058	-5.02
208.28	-11.98
208.502	70.35
208.724	71.58
208.946	65.43
209.168	54.78
209.39	68.3
209.611	60.52
209.833	24.06
210.055	62.16
210.277	26.11
210.499	33.89
210.721	-13.21
210.943	47.82
211.165	83.05
211.386	58.06
211.608	4.4
211.83	-22.63
212.052	-0.92
212.274	57.24
212.495	31.44
212.717	-30.82
212.939	-15.26
213.161	15.05
213.382	10.55
213.604	50.69
213.826	22.83
214.047	47.82
214.269	19.97
214.491	18.33
214.712	64.61
214.934	18.74
215.155	20.79
215.377	49.46
215.599	79.77
215.82	44.95
216.042	15.05
216.263	-2.97
216.485	25.7
216.706	73.21
216.928	-51.3
217.149	25.29
217.371	65.84
217.592	31.85
217.814	19.56
218.035	36.35
218.257	25.29
218.478	31.03
218.699	34.3
218.921	32.67
219.142	69.53
219.363	-19.76
219.585	45.77
219.806	-46.8
220.027	6.86
220.249	31.85
220.47	56.42
220.691	13.82
220.913	23.24
221.134	45.36
221.355	21.2
221.576	33.89
221.798	-62.77
222.019	9.73
222.24	7.68
222.461	12.19
222.682	42.09
222.903	3.58
223.125	64.2
223.346	30.62
223.567	-36.15
223.788	-57.04
224.009	-25.91
224.23	84.68
224.451	74.03
224.672	13.41
224.893	58.06
225.114	-7.88
225.335	-55.4
225.556	54.78
225.777	28.57
225.998	3.99
226.219	23.24
226.44	30.62
226.661	67.48
226.882	62.57
227.103	22.43
227.324	-19.76
227.544	53.14
227.765	-0.51
227.986	-5.84
228.207	-7.07
228.428	52.33
228.649	21.61
228.869	-21.81
229.09	15.46
229.311	62.57
229.532	28.16
229.752	45.77
229.973	42.9
230.194	114.17
230.415	17.51
230.635	62.98
230.856	2.36
231.077	84.27
231.297	58.88
231.518	40.04
231.739	-31.64
231.959	54.37
232.18	6.45
232.4	53.14
232.621	-5.43
232.841	-30
233.062	-68.09
233.283	18.74
233.503	31.85
233.724	29.8
233.944	-0.51
234.165	11.78
234.385	35.53
234.605	15.87
234.826	-9.52
235.046	32.26
235.267	19.56
235.487	32.67
235.708	17.92
235.928	-41.88
236.148	48.64
236.369	31.44
236.589	0.72
236.809	12.19
237.03	50.28
237.25	19.56
237.47	23.24
237.69	40.04
237.911	19.97
238.131	66.25
238.351	71.99
238.571	40.86
238.792	13.82
239.012	-17.31
239.232	8.5
239.452	24.88
239.672	29.8
239.892	17.51
240.112	6.45
240.333	-5.84
240.553	36.76
240.773	59.29
240.993	46.59
241.213	0.72
241.433	-55.4
241.653	-5.02
241.873	-30.82
242.093	-40.65
242.313	-17.31
242.533	84.27
242.753	27.75
242.973	85.09
243.193	-3.79
243.413	20.38
243.633	37.17
243.853	-30
244.072	98.2
244.292	-25.5
244.512	-38.6
244.732	45.36
244.952	23.65
245.172	46.59
245.391	81.82
245.611	65.43
245.831	-15.26
246.051	56.01
246.271	78.95
246.49	-62.77
246.71	-7.48
246.93	0.31
247.149	21.61
247.369	-1.74
247.589	12.19
247.808	32.26
248.028	-41.88
248.248	31.44
248.467	16.28
248.687	10.14
248.906	-5.43
249.126	-0.1
249.346	-14.85
249.565	-32.87
249.785	-1.33
250.004	46.18
250.224	-35.33
250.443	-5.43
250.663	69.53
250.882	125.23
251.102	-35.33
251.321	80.59
251.541	36.76
251.76	38.81
251.979	17.51
252.199	88.78
252.418	-24.68
252.638	21.61
252.857	15.87
253.076	-3.38
253.296	4.81
253.515	47.41
253.734	12.6
253.953	34.71
254.173	13
254.392	-13.21
254.611	32.67
254.83	4.81
255.05	35.53
255.269	-1.33
255.488	21.2
255.707	81.41
255.926	38.4
256.146	14.64
256.365	86.32
256.584	-28.77
256.803	12.6
257.022	81.82
257.241	13
257.46	-39.01
257.679	42.9
257.898	7.68
258.117	21.2
258.336	18.74
258.555	48.23
258.774	-11.57
258.993	55.19
259.212	0.72
259.431	-38.6
259.65	24.88
259.869	5.63
260.088	48.23
260.307	45.36
260.526	-20.99
260.745	58.06
260.964	110.9
261.182	24.88
261.401	14.23
261.62	71.17
261.839	55.6
262.058	56.01
262.276	-57.86
262.495	50.69
262.714	70.35
262.933	-18.12
263.151	9.73
263.37	34.3
263.589	99.43
263.807	-22.22
264.026	-43.11
264.245	9.32
264.463	-20.17
264.682	41.27
264.901	12.6
265.119	5.22
265.338	37.58
265.556	23.24
265.775	1.95
265.994	56.01
266.212	52.33
266.431	17.1
266.649	1.54
266.868	-21.81
267.086	-9.93
267.305	3.58
267.523	59.7
267.742	83.45
267.96	-3.79
268.178	37.99
268.397	-4.2
268.615	-33.28
268.834	85.91
269.052	-20.99
269.27	40.86
269.489	-74.24
269.707	69.12
269.925	22.43
270.143	53.96
270.362	-11.16
270.58	77.31
270.798	0.72
271.017	27.75
271.235	26.93
271.453	33.48
271.671	-10.75
271.889	14.23
272.108	17.92
272.326	1.54
272.544	15.05
272.762	74.85
272.98	32.67
273.198	-20.99
273.416	6.04
273.634	62.98
273.852	21.2
274.07	46.59
274.289	-21.4
274.507	1.95
274.725	6.45
274.943	63.79
275.161	33.89
275.379	28.98
275.596	-24.27
275.814	-48.43
276.032	11.37
276.25	52.74
276.468	89.6
276.686	-8.29
276.904	10.96
277.122	-11.16
277.34	69.94
277.557	71.17
277.775	-22.63
277.993	9.32
278.211	60.11
278.429	27.34
278.646	6.45
278.864	16.28
279.082	-23.45
279.3	63.79
279.517	64.2
279.735	40.45
279.953	-23.45
280.17	-25.5
280.388	-7.48
280.606	-52.53
280.823	97.38
281.041	56.01
281.259	-88.57
281.476	24.88
281.694	25.7
281.911	34.71
282.129	35.12
282.346	-17.31
282.564	-10.34
282.781	33.07
282.999	0.72
283.216	14.23
283.434	13.82
283.651	34.3
283.869	-40.65
284.086	-17.71
284.304	76.9
284.521	20.79
284.738	-35.33
284.956	21.2
285.173	-8.29
285.391	-10.75
285.608	15.87
285.825	32.67
286.043	20.79
286.26	13.82
286.477	18.33
286.694	11.37
286.912	58.88
287.129	71.99
287.346	-10.34
287.563	-10.75
287.78	-17.71
287.998	37.17
288.215	82.64
288.432	33.07
288.649	-4.61
288.866	49.05
289.083	0.31
289.3	60.11
289.518	40.04
289.735	24.88
289.952	26.93
290.169	51.1
290.386	-16.49
290.603	-39.83
290.82	67.07
291.037	6.45
291.254	-14.03
291.471	47.41
291.688	3.58
291.905	-21.4
292.122	-23.04
292.339	-8.7
292.555	38.4
292.772	-0.51
292.989	3.58
293.206	42.09
293.423	-10.34
293.64	42.09
293.857	93.69
294.073	103.52
294.29	134.65
294.507	19.15
294.724	10.55
294.94	-5.84
295.157	-36.15
295.374	18.74
295.591	20.38
295.807	37.17
296.024	23.65
296.241	41.27
296.457	63.79
296.674	-5.43
296.891	46.18
297.107	37.99
297.324	-8.7
297.54	25.29
297.757	18.33
297.973	32.67
298.19	63.38
298.407	11.78
298.623	-30.82
298.84	77.31
299.056	1.13
299.272	6.04
299.489	4.81
299.705	30.21
299.922	13
300.138	110.08
300.355	8.5
300.571	103.93
300.787	-30
301.004	71.17
301.22	42.5
301.436	17.1
301.653	71.58
301.869	13
302.085	42.9
302.302	31.85
302.518	46.18
302.734	20.38
302.95	-17.31
303.167	26.52
303.383	17.92
303.599	70.76
303.815	-0.51
304.031	41.27
304.248	30.21
304.464	4.81
304.68	35.94
304.896	-5.02
305.112	35.94
305.328	26.52
305.544	-11.16
305.76	28.57
305.976	20.79
306.192	49.87
306.408	20.38
306.624	-38.19
306.84	69.53
307.056	-52.53
307.272	63.79
307.488	54.78
307.704	46.18
307.92	36.35
308.136	37.17
308.352	125.23
308.568	56.83
308.784	-28.77
309	67.89
309.215	-34.51
309.431	26.93
309.647	12.6
309.863	41.27
310.079	49.05
310.294	31.85
310.51	19.97
310.726	-13.62
310.942	85.09
311.157	19.15
311.373	103.52
311.589	-49.66
311.804	5.22
312.02	70.35
312.236	-2.15
312.451	42.5
312.667	65.43
312.883	-59.08
313.098	7.27
313.314	69.94
313.529	42.5
313.745	108.44
313.961	75.26
314.176	19.97
314.392	14.64
314.607	-23.86
314.823	51.92
315.038	0.72
315.253	33.07
315.469	-22.22
315.684	42.09
315.9	-51.3
316.115	18.33
316.331	62.98
316.546	64.2
316.761	-48.43
316.977	107.62
317.192	26.93
317.407	57.65
317.623	-27.14
317.838	58.47
318.053	-18.94
318.268	48.64
318.484	-7.48
318.699	-14.85
318.914	83.45
319.129	11.37
319.344	35.53
319.56	56.83
319.775	19.15
319.99	53.96
320.205	48.23
320.42	68.71
320.635	55.19
320.85	112.95
321.066	6.45
321.281	21.61
321.496	67.07
321.711	33.48
321.926	45.77
322.141	-2.56
322.356	35.12
322.571	23.65
322.786	17.1
323.001	40.86
323.216	36.76
323.43	68.3
323.645	40.86
323.86	78.13
324.075	-21.4
324.29	10.55
324.505	37.58
324.72	-9.11
324.935	25.29
325.149	46.59
325.364	79.36
325.579	20.79
325.794	-2.15
326.009	25.7
326.223	15.05
326.438	-27.55
326.653	-17.31
326.867	17.51
327.082	49.46
327.297	15.05
327.511	56.01
327.726	6.04
327.941	3.58
328.155	-71.37
328.37	-2.97
328.585	35.12
328.799	35.94
329.014	32.26
329.228	-11.57
329.443	6.04
329.657	-9.52
329.872	12.6
330.086	-29.18
330.301	90.01
330.515	71.17
330.73	-0.92
330.944	61.75
331.159	25.7
331.373	-3.38
331.587	-5.43
331.802	-19.35
332.016	22.02
332.231	0.31
332.445	110.9
332.659	100.25
332.874	-23.86
333.088	125.64
333.302	49.87
333.516	8.5
333.731	34.71
333.945	21.61
334.159	26.11
334.373	-8.7
334.588	1.54
334.802	45.36
335.016	4.81
335.23	44.95
335.444	48.23
335.658	-71.37
335.872	77.72
336.087	28.98
336.301	81.41
336.515	-34.92
336.729	74.85
336.943	-22.63
337.157	88.78
337.371	-66.46
337.585	5.63
337.799	59.29
338.013	18.74
338.227	-15.67
338.441	51.92
338.655	52.33
338.869	49.05
339.083	1.13
339.296	0.72
339.51	27.75
339.724	41.68
339.938	24.88
340.152	5.63
340.366	12.6
340.58	28.98
340.793	34.3
341.007	-8.29
341.221	-14.85
341.435	86.32
341.648	57.65
341.862	51.1
342.076	-19.76
342.29	40.86
342.503	24.06
342.717	15.87
342.931	-7.88
343.144	-10.34
343.358	1.13
343.571	43.72
343.785	15.05
343.999	112.54
344.212	72.4
344.426	13
344.639	35.12
344.853	65.84
345.066	24.47
345.28	16.69
345.493	10.14
345.707	-5.84
345.92	-0.1
346.134	51.51
346.347	8.91
346.561	8.91
346.774	61.34
346.987	63.79
347.201	29.8
347.414	2.36
347.627	-16.49
347.841	63.38
348.054	9.32
348.267	73.21
348.481	1.13
348.694	4.4
348.907	6.86
349.12	45.77
349.334	17.1
349.547	-10.34
349.76	34.71
349.973	6.45
350.186	-26.73
350.4	17.51
350.613	43.31
350.826	2.36
351.039	58.47
351.252	51.92
351.465	37.99
351.678	14.23
351.891	3.17
352.104	-30.82
352.317	39.63
352.53	16.69
352.743	-14.03
352.956	35.94
353.169	66.66
353.382	66.66
353.595	-52.12
353.808	-54.99
354.021	40.04
354.234	70.76
354.447	-23.04
354.66	30.62
354.873	41.27
355.086	127.28
355.298	67.48
355.511	31.03
355.724	22.43
355.937	133.43
356.15	50.69
356.362	48.64
356.575	-38.6
356.788	74.03
357.001	-2.97
357.213	15.46
357.426	26.11
357.639	87.55
357.851	53.55
358.064	68.71
358.277	82.64
358.489	8.91
358.702	49.87
358.914	-20.99
359.127	-18.53
359.34	62.98
359.552	65.84
359.765	-25.5
359.977	42.9
360.19	54.78
360.402	49.46
360.615	14.64
360.827	-6.25
361.04	135.47
361.252	-15.26
361.465	13
361.677	9.32
361.889	78.13
362.102	44.13
362.314	38.4
362.526	80.18
362.739	34.71
362.951	51.1
363.163	26.93
363.376	22.43
363.588	-18.94
363.8	49.05
364.012	79.77
364.225	11.78
364.437	83.45
364.649	70.35
364.861	4.81
365.074	-5.84
365.286	35.94
365.498	62.98
365.71	8.5
365.922	13.82
366.134	34.3
366.346	-29.18
366.558	56.01
366.77	47
366.983	47.41
367.195	-1.74
367.407	53.96
367.619	85.91
367.831	47.82
368.043	-0.51
368.255	81
368.467	60.93
368.678	33.89
368.89	-88.57
369.102	43.72
369.314	40.86
369.526	71.17
369.738	24.06
369.95	46.18
370.162	46.18
370.373	-9.93
370.585	22.43
370.797	33.07
371.009	58.47
371.221	41.68
371.432	-0.92
371.644	98.2
371.856	48.23
372.068	12.19
372.279	-7.07
372.491	84.27
372.703	8.91
372.914	11.78
373.126	33.89
373.338	-7.07
373.549	42.9
373.761	60.11
373.972	5.63
374.184	61.75
374.395	66.66
374.607	76.08
374.819	-27.95
375.03	3.17
375.242	81.41
375.453	57.65
375.664	63.79
375.876	96.56
376.087	42.5
376.299	78.54
376.51	6.04
376.722	11.78
376.933	20.38
377.144	117.45
377.356	42.9
377.567	50.28
377.778	55.6
377.99	22.02
378.201	80.59
378.412	58.47
378.624	-19.76
378.835	38.81
379.046	8.5
379.257	0.31
379.468	37.58
379.68	17.1
379.891	-5.84
380.102	39.22
380.313	-2.97
380.524	31.85
380.735	-5.84
380.946	-2.97
381.158	31.03
381.369	-12.39
381.58	24.88
381.791	8.5
382.002	-50.48
382.213	53.14
382.424	40.04
382.635	71.17
382.846	88.78
383.057	19.56
383.268	-35.74
383.479	19.15
383.69	-11.16
383.9	45.77
384.111	46.59
384.322	-31.23
384.533	29.39
384.744	-11.16
384.955	52.33
385.166	38.81
385.376	40.45
385.587	52.74
385.798	97.79
386.009	15.05
386.22	-7.88
386.43	32.67
386.641	62.98
386.852	13.82
387.062	74.44
387.273	50.69
387.484	29.39
387.694	25.7
387.905	31.03
388.116	66.66
388.326	8.91
388.537	86.73
388.747	53.96
388.958	88.37
389.168	31.44
389.379	44.13
389.59	-23.45
389.8	-24.68
390.011	58.47
390.221	59.7
390.431	51.1
390.642	43.72
390.852	23.24
391.063	-5.02
391.273	55.6
391.484	49.87
391.694	10.14
391.904	40.45
392.115	48.64
392.325	71.17
392.535	24.88
392.746	50.69
392.956	87.55
393.166	-11.16
393.376	38.4
393.587	101.07
393.797	83.45
394.007	76.49
394.217	2.36
394.427	63.79
394.638	-5.84
394.848	49.05
395.058	70.35
395.268	-1.33
395.478	47.41
395.688	8.91
395.898	-1.74
396.108	64.61
396.318	31.03
396.528	46.59
396.738	76.08
396.948	71.99
397.158	-40.65
397.368	42.5
397.578	-36.56
397.788	45.36
397.998	-45.57
398.208	61.34
398.418	-56.63
398.628	41.68
398.838	21.2
399.048	53.55
399.258	99.02
399.467	43.72
399.677	24.06
399.887	-10.75
400.097	-0.51
400.307	37.17
400.516	30.21
400.726	42.9
400.936	32.26
401.146	65.02
401.355	65.02
401.565	93.69
401.775	27.75
401.984	-25.09
402.194	-8.29
402.404	114.17
402.613	3.99
402.823	-37.79
403.032	26.93
403.242	-5.84
403.452	-2.97
403.661	87.55
403.871	15.87
404.08	107.21
404.29	56.01
404.499	28.98
404.709	-8.7
404.918	44.54
405.128	25.7
405.337	7.68
405.546	-7.07
405.756	-33.69
405.965	58.47
406.175	54.37
406.384	43.31
406.593	59.29
406.803	-56.63
407.012	28.57
407.221	-11.57
407.43	11.78
407.64	16.28
407.849	-20.17
408.058	-18.12
408.267	-11.16
408.477	-22.22
408.686	-32.05
408.895	-17.31
409.104	48.64
409.313	-9.93
409.522	-5.43
409.732	19.97
409.941	53.55
410.15	38.81
410.359	90.01
410.568	-40.65
410.777	100.25
410.986	50.28
411.195	35.53
411.404	17.1
411.613	20.79
411.822	53.96
412.031	44.13
412.24	56.01
412.449	14.64
412.658	38.4
412.867	99.02
413.075	35.94
413.284	38.81
413.493	47.41
413.702	-11.57
413.911	24.88
414.12	49.05
414.328	16.69
414.537	51.51
414.746	40.45
414.955	71.17
415.164	-5.43
415.372	54.37
415.581	93.28
415.79	-18.53
415.998	54.78
416.207	50.28
416.416	140.8
416.624	53.55
416.833	56.01
417.042	82.23
417.25	85.5
417.459	3.17
417.667	59.29
417.876	21.2
418.084	11.78
418.293	6.86
418.501	9.32
418.71	-4.61
418.918	44.13
419.127	-9.11
419.335	13.82
419.544	8.09
419.752	34.3
419.96	79.77
420.169	21.61
420.377	59.29
420.586	96.56
420.794	79.36
421.002	50.69
421.211	53.14
421.419	0.31
421.627	1.54
421.835	59.29
422.044	22.83
422.252	60.11
422.46	36.76
422.668	-13.21
422.877	16.69
423.085	57.24
423.293	39.63
423.501	44.13
423.709	-17.31
423.917	30.21
424.125	2.76
424.333	-4.61
424.542	29.39
424.75	49.87
424.958	64.61
425.166	56.42
425.374	118.68
425.582	75.26
425.79	-11.16
425.998	8.09
426.206	40.45
426.414	80.18
426.621	25.29
426.829	3.99
427.037	19.56
427.245	68.3
427.453	37.17
427.661	10.96
427.869	142.44
428.077	59.7
428.284	19.97
428.492	45.77
428.7	9.73
428.908	-24.68
429.115	117.45
429.323	34.3
429.531	17.92
429.739	85.5
429.946	79.77
430.154	7.68
430.362	6.45
430.569	50.28
430.777	56.42
430.985	-14.03
431.192	48.64
431.4	68.71
431.607	37.99
431.815	149.81
432.022	22.02
432.23	31.85
432.437	53.96
432.645	-8.29
432.852	-5.43
433.06	30.62
433.267	39.63
433.475	17.1
433.682	78.54
433.89	28.16
434.097	61.75
434.304	60.93
434.512	3.99
434.719	-0.1
434.926	7.27
435.134	-25.09
435.341	90.01
435.548	129.74
435.756	139.57
435.963	1.95
436.17	73.62
436.377	99.02
436.585	39.63
436.792	3.99
436.999	-16.9
437.206	42.09
437.413	103.93
437.621	-14.03
437.828	112.95
438.035	-12.39
438.242	29.39
438.449	-0.51
438.656	67.89
438.863	103.12
439.07	-15.67
439.277	64.61
439.484	5.63
439.691	31.03
439.898	74.03
440.105	16.28
440.312	-11.98
440.519	-59.9
440.726	26.11
440.933	-33.69
441.14	58.47
441.347	67.48
441.553	8.09
441.76	42.09
441.967	66.66
442.174	57.24
442.381	9.73
442.587	-48.84
442.794	38.81
443.001	15.46
443.208	28.16
443.414	44.54
443.621	47.41
443.828	60.93
444.035	51.1
444.241	37.17
444.448	95.74
444.654	47.82
444.861	75.26
445.068	120.32
445.274	-4.61
445.481	47.41
445.687	53.96
445.894	-8.29
446.101	99.43
446.307	57.65
446.514	-8.7
446.72	27.34
446.926	19.56
447.133	-2.15
447.339	7.27
447.546	32.26
447.752	57.65
447.959	-25.91
448.165	37.17
448.371	69.12
448.578	15.05
448.784	64.61
448.99	139.16
449.197	-0.51
449.403	76.9
449.609	-18.53
449.816	109.26
450.022	19.97
450.228	114.17
450.434	89.19
450.64	74.44
450.847	26.11
451.053	77.72
451.259	58.47
451.465	24.47
451.671	169.88
451.877	136.7
452.083	57.24
452.289	51.92
452.496	-7.48
452.702	9.32
452.908	58.47
453.114	119.91
453.32	-23.86
453.526	10.55
453.732	-18.53
453.938	26.52
454.144	40.86
454.349	72.4
454.555	100.66
454.761	138.75
454.967	36.76
455.173	26.11
455.379	153.9
455.585	138.75
455.791	51.51
455.996	42.9
456.202	19.56
456.408	28.57
456.614	96.97
456.819	29.8
457.025	33.07
457.231	94.1
457.437	-34.1
457.642	58.88
457.848	78.54
458.054	91.65
458.259	75.67
458.465	50.69
458.671	45.36
458.876	59.29
459.082	111.31
459.287	15.46
459.493	58.06
459.698	48.64
459.904	88.37
460.109	76.08
460.315	57.65
460.52	18.74
460.726	16.28
460.931	78.95
461.137	74.85
461.342	104.75
461.548	17.92
461.753	73.62
461.958	51.92
462.164	108.85
462.369	29.8
462.574	81
462.78	73.62
462.985	72.4
463.19	49.05
463.396	128.1
463.601	47
463.806	17.92
464.011	7.27
464.216	17.92
464.422	60.11
464.627	147.76
464.832	49.46
465.037	28.98
465.242	30.62
465.447	44.54
465.653	77.72
465.858	29.8
466.063	53.96
466.268	79.36
466.473	54.78
466.678	144.48
466.883	90.83
467.088	136.7
467.293	60.93
467.498	54.37
467.703	47.82
467.908	56.42
468.113	4.4
468.317	77.31
468.522	140.8
468.727	76.9
468.932	28.57
469.137	48.23
469.342	3.99
469.547	39.63
469.751	61.75
469.956	74.85
470.161	67.07
470.366	124
470.57	90.83
470.775	73.21
470.98	92.47
471.185	41.68
471.389	23.24
471.594	114.17
471.799	-10.34
472.003	126.87
472.208	134.24
472.412	74.44
472.617	11.78
472.822	58.47
473.026	80.59
473.231	119.5
473.435	26.11
473.64	58.47
473.844	100.25
474.049	15.46
474.253	42.5
474.458	62.16
474.662	31.85
474.866	47.82
475.071	118.68
475.275	88.37
475.48	75.26
475.684	90.42
475.888	57.65
476.093	101.48
476.297	101.48
476.501	121.14
476.706	28.57
476.91	68.71
477.114	61.34
477.318	61.34
477.523	64.61
477.727	86.73
477.931	63.79
478.135	105.16
478.339	116.22
478.543	37.17
478.748	22.83
478.952	70.35
479.156	44.54
479.36	124.41
479.564	46.18
479.768	151.04
479.972	104.75
480.176	56.42
480.38	-7.48
480.584	83.05
480.788	33.48
480.992	37.58
481.196	38.81
481.4	124.82
481.604	42.09
481.808	114.99
482.012	30.62
482.215	75.67
482.419	104.34
482.623	106.39
482.827	98.61
483.031	116.22
483.235	99.02
483.438	21.61
483.642	29.8
483.846	95.33
484.05	73.62
484.253	40.45
484.457	87.14
484.661	79.36
484.864	89.19
485.068	93.28
485.272	92.88
485.475	101.07
485.679	104.34
485.883	87.55
486.086	50.69
486.29	110.9
486.493	79.77
486.697	130.56
486.9	24.06
487.104	162.92
487.307	123.19
487.511	124.41
487.714	58.47
487.918	114.99
488.121	70.35
488.325	89.19
488.528	81
488.731	96.97
488.935	162.51
489.138	179.71
489.341	71.99
489.545	201.42
489.748	128.51
489.951	113.76
490.155	163.74
490.358	106.39
490.561	121.96
490.764	114.17
490.967	103.12
491.171	144.07
491.374	164.96
491.577	153.09
491.78	101.07
491.983	94.92
492.186	96.56
492.39	129.74
492.593	47.82
492.796	156.36
492.999	108.03
493.202	125.23
493.405	151.45
493.608	152.27
493.811	149.81
494.014	56.42
494.217	114.58
494.42	173.16
494.623	161.69
494.826	143.67
495.029	83.05
495.231	108.85
495.434	184.62
495.637	161.69
495.84	160.05
496.043	135.47
496.246	222.72
496.448	194.86
496.651	198.55
496.854	103.52
497.057	144.89
497.259	202.65
497.462	126.87
497.665	135.06
497.868	90.42
498.07	128.92
498.273	185.44
498.476	153.5
498.678	182.99
498.881	204.69
499.083	86.73
499.286	208.79
499.489	119.09
499.691	191.59
499.894	176.43
500.096	164.96
500.299	117.86
500.501	199.37
500.704	148.17
500.906	222.72
501.109	143.67
501.311	200.6
501.513	170.7
501.716	129.74
501.918	166.19
502.121	261.63
502.323	102.71
502.525	154.72
502.728	210.43
502.93	143.67
503.132	119.09
503.334	117.86
503.537	148.17
503.739	184.21
503.941	95.74
504.143	156.77
504.346	171.11
504.548	190.36
504.75	232.14
504.952	114.17
505.154	184.21
505.356	176.43
505.558	205.1
505.761	241.15
505.963	202.24
506.165	242.79
506.367	190.36
506.569	228.86
506.771	268.18
506.973	177.25
507.175	88.37
507.377	285.38
507.579	184.21
507.781	176.43
507.982	233.37
508.184	192.41
508.386	221.49
508.588	200.6
508.79	199.37
508.992	233.37
509.194	294.4
509.395	244.02
509.597	188.31
509.799	226.4
510.001	250.98
510.203	220.26
510.404	164.55
510.606	169.06
510.808	209.2
511.009	157.18
511.211	178.89
511.413	331.26
511.614	248.11
511.816	246.06
512.018	214.52
512.219	257.12
512.421	237.46
512.622	243.61
512.824	221.49
513.025	241.15
513.227	253.85
513.428	330.85
513.63	223.54
513.831	284.97
514.033	294.4
514.234	251.8
514.436	316.92
514.637	276.37
514.838	315.28
515.04	242.79
515.241	217.8
515.443	347.64
515.644	241.97
515.845	239.51
516.046	221.49
516.248	332.08
516.449	327.57
516.65	264.09
516.851	298.08
517.053	365.26
517.254	319.38
517.455	317.74
517.656	284.97
517.857	212.07
518.059	325.12
518.26	323.89
518.461	322.66
518.662	323.48
518.863	314.06
519.064	336.99
519.265	297.26
519.466	311.19
519.667	366.07
519.868	466.83
520.069	339.45
520.27	314.47
520.471	324.71
520.672	374.68
520.873	338.22
521.074	359.93
521.275	334.13
521.476	313.24
521.676	432.43
521.877	355.83
522.078	416.45
522.279	379.59
522.48	500.01
522.681	533.19
522.881	476.26
523.082	415.64
523.283	530.32
523.483	420.14
523.684	546.71
523.885	570.05
524.086	506.97
524.286	427.92
524.487	510.25
524.687	634.36
524.888	643.78
525.089	586.03
525.289	596.68
525.49	671.22
525.69	726.52
525.891	812.53
526.091	776.49
526.292	782.22
526.492	927.63
526.693	999.31
526.893	960.39
527.094	1024.7
527.294	1270.87
527.495	1446.99
527.695	1769.34
527.895	2229.73
528.096	2639.73
528.296	3119.36
528.496	3381.91
528.697	3428.61
528.897	4140.48
529.097	5103.44
529.298	6787.69
529.498	11075.31
529.698	33206.89
529.898	62364.64
530.098	62364.64
530.299	62364.64
530.499	62364.64
530.699	62364.64
530.899	62364.64
531.099	62364.64
531.299	62364.64
531.499	62364.64
531.7	62364.64
531.9	62364.64
532.1	62364.64
532.3	62364.64
532.5	62364.64
532.7	62364.64
532.9	62364.64
533.1	62364.64
533.3	62364.64
533.5	62364.64
533.699	62364.64
533.899	62364.64
534.099	62364.64
534.299	62364.64
534.499	62364.64
534.699	62364.64
534.899	62364.64
535.098	62364.64
535.298	62364.64
535.498	62364.64
535.698	62364.64
535.898	62364.64
536.097	62364.64
536.297	62364.64
536.497	62364.64
536.696	56574.62
536.896	62364.64
537.096	50486.83
537.295	50565.47
537.495	50339.38
537.695	50359.86
537.894	38489.83
538.094	44520.69
538.293	38239.57
538.493	38337.05
538.692	31598.42
538.892	27796.98
539.091	20088.42
539.291	15047.14
539.49	2128.97
539.69	2160.1
539.889	1820.13
540.089	1759.92
540.288	1512.53
540.487	1438.8
540.687	1426.51
540.886	1340.91
541.085	1216.39
541.285	1233.59
541.484	1205.74
541.683	1211.07
541.883	1092.28
542.082	1060.75
542.281	920.25
542.48	941.14
542.68	909.2
542.879	890.76
543.078	848.17
543.277	802.7
543.476	760.51
543.675	741.26
543.874	767.07
544.074	801.88
544.273	737.99
544.472	750.27
544.671	796.97
544.87	719.96
545.069	735.12
545.268	747
545.467	687.2
545.666	675.73
545.865	635.18
546.064	660.16
546.263	588.89
546.462	541.79
546.66	528.68
546.859	597.09
547.058	611.42
547.257	551.62
547.456	556.95
547.655	550.8
547.853	611.42
548.052	498.78
548.251	470.93
548.45	555.31
548.648	538.51
548.847	477.48
549.046	494.28
549.245	435.3
549.443	476.66
549.642	528.68
549.841	530.32
550.039	498.78
550.238	426.69
550.436	454.96
550.635	447.58
550.834	402.53
551.032	405.4
551.231	347.64
551.429	382.87
551.628	426.28
551.826	382.05
552.025	326.34
552.223	355.02
552.421	411.54
552.62	466.02
552.818	357.88
553.017	382.46
553.215	341.09
553.413	416.04
553.612	368.94
553.81	359.11
554.008	326.34
554.207	406.62
554.405	414.82
554.603	351.33
554.801	414
555	422.6
555.198	420.14
555.396	348.05
555.594	327.16
555.792	364.03
555.991	304.64
556.189	398.43
556.387	390.24
556.585	366.48
556.783	393.52
556.981	279.24
557.179	396.38
557.377	287.43
557.575	335.76
557.773	355.83
557.971	343.14
558.169	289.48
558.367	323.48
558.565	265.72
558.763	264.09
558.961	283.34
559.159	236.23
559.357	321.02
559.554	352.56
559.752	336.58
559.95	244.02
560.148	259.58
560.346	263.27
560.544	271.46
560.741	293.58
560.939	230.91
561.137	264.09
561.334	221.08
561.532	281.7
561.73	254.66
561.928	265.72
562.125	267.77
562.323	291.94
562.52	224.35
562.718	254.66
562.916	325.12
563.113	232.96
563.311	248.52
563.508	283.75
563.706	214.52
563.903	217.8
564.101	239.92
564.298	282.11
564.496	275.96
564.693	265.31
564.891	205.51
565.088	276.78
565.285	209.61
565.483	255.89
565.68	201.42
565.878	246.06
566.075	269.41
566.272	160.46
566.469	201.83
566.667	206.33
566.864	229.27
567.061	237.87
567.259	248.11
567.456	203.06
567.653	198.14
567.85	216.16
568.047	187.49
568.244	244.83
568.442	128.51
568.639	207.15
568.836	133.02
569.033	245.24
569.23	162.92
569.427	205.1
569.624	169.88
569.821	188.31
570.018	169.06
570.215	156.36
570.412	180.94
570.609	84.68
570.806	236.23
571.003	145.3
571.2	217.39
571.397	233.78
571.594	169.88
571.791	156.77
571.987	179.3
572.184	151.86
572.381	191.18
572.578	210.84
572.775	173.16
572.971	187.9
573.168	171.11
573.365	206.33
573.562	142.03
573.758	243.61
573.955	175.61
574.152	141.21
574.348	192.82
574.545	244.02
574.742	133.83
574.938	257.53
575.135	146.53
575.331	180.12
575.528	190.36
575.725	133.02
575.921	144.48
576.118	137.93
576.314	148.99
576.511	139.57
576.707	168.24
576.903	93.28
577.1	131.38
577.296	105.16
577.493	154.72
577.689	102.3
577.885	225.58
578.082	115.4
578.278	150.63
578.474	124
578.671	187.08
578.867	172.75
579.063	94.51
579.26	105.16
579.456	182.17
579.652	96.56
579.848	125.64
580.044	122.78
580.241	173.57
580.437	141.21
580.633	130.15
580.829	142.85
581.025	175.61
581.221	133.83
581.417	114.17
581.613	164.14
581.809	198.55
582.005	162.92
582.201	120.73
582.397	138.75
582.593	128.92
582.789	190.36
582.985	90.01
583.181	183.81
583.377	176.43
583.573	-3.79
583.769	126.87
583.965	89.19
584.161	125.64
584.357	173.57
584.552	90.42
584.748	69.94
584.944	67.48
585.14	106.39
585.335	103.52
585.531	94.1
585.727	97.79
585.923	133.02
586.118	185.44
586.314	139.16
586.51	140.39
586.705	75.67
586.901	90.01
587.097	157.59
587.292	196.5
587.488	165.78
587.683	161.69
587.879	92.47
588.074	154.72
588.27	93.28
588.465	57.65
588.661	169.88
588.856	102.3
589.052	100.25
589.247	144.07
589.443	63.79
589.638	182.99
589.833	111.31
590.029	162.92
590.224	106.8
590.419	121.14
590.615	103.93
590.81	109.26
591.005	102.71
591.201	91.24
591.396	105.98
591.591	68.71
591.786	150.63
591.981	75.67
592.177	51.92
592.372	76.08
592.567	69.53
592.762	71.17
592.957	86.73
593.152	116.63
593.347	81.41
593.543	59.7
593.738	122.37
593.933	146.94
594.128	166.6
594.323	69.12
594.518	81.41
594.713	43.72
594.908	118.27
595.103	104.34
595.297	113.76
595.492	158.82
595.687	15.87
595.882	117.86
596.077	108.85
596.272	71.58
596.467	96.56
596.661	170.7
596.856	223.54
597.051	144.89
597.246	139.57
597.441	117.04
597.635	158
597.83	81.41
598.025	117.45
598.219	79.77
598.414	31.03
598.609	125.64
598.803	72.4
598.998	154.31
599.193	88.78
599.387	70.76
599.582	60.52
599.776	131.79
599.971	74.03
600.165	60.11
600.36	128.1
600.554	131.38
600.749	149.4
600.943	50.69
601.138	112.95
601.332	124
601.526	117.45
601.721	86.32
601.915	65.02
602.11	23.24
602.304	127.69
602.498	15.46
602.693	47.41
602.887	77.31
603.081	74.85
603.275	148.99
603.47	56.83
603.664	110.08
603.858	31.03
604.052	53.14
604.246	164.96
604.441	68.71
604.635	85.09
604.829	113.36
605.023	105.98
605.217	153.09
605.411	-5.84
605.605	137.11
605.799	154.72
605.993	122.78
606.187	80.59
606.381	119.91
606.575	88.37
606.769	85.91
606.963	77.72
607.157	109.67
607.351	39.22
607.545	50.28
607.739	125.64
607.933	39.63
608.126	46.18
608.32	116.22
608.514	104.34
608.708	55.19
608.902	89.6
609.095	110.9
609.289	85.09
609.483	109.26
609.677	97.38
609.87	119.09
610.064	62.57
610.258	87.14
610.451	181.35
610.645	107.21
610.839	47
611.032	89.19
611.226	67.07
611.419	8.5
611.613	33.89
611.806	62.16
612	95.74
612.193	122.78
612.387	37.17
612.58	83.45
612.774	160.05
612.967	132.2
613.161	110.49
613.354	69.94
613.548	112.95
613.741	124
613.934	113.76
614.128	22.02
614.321	97.79
614.514	162.1
614.707	31.44
614.901	63.79
615.094	106.8
615.287	125.23
615.48	85.5
615.674	110.08
615.867	90.01
616.06	88.78
616.253	42.5
616.446	22.83
616.639	41.68
616.833	119.91
617.026	128.51
617.219	94.51
617.412	31.44
617.605	105.16
617.798	101.48
617.991	45.77
618.184	64.61
618.377	91.24
618.57	92.06
618.763	55.19
618.956	134.24
619.149	52.33
619.341	40.86
619.534	50.69
619.727	118.68
619.92	105.16
620.113	109.26
620.306	51.92
620.498	58.06
620.691	111.72
620.884	13
621.077	58.06
621.269	35.53
621.462	100.66
621.655	30.62
621.848	77.72
622.04	64.61
622.233	59.7
622.425	50.69
622.618	81.82
622.811	45.77
623.003	70.35
623.196	135.88
623.388	98.2
623.581	77.72
623.773	86.32
623.966	83.86
624.158	104.75
624.351	76.9
624.543	158.82
624.736	58.06
624.928	135.47
625.121	62.98
625.313	107.62
625.505	12.6
625.698	109.26
625.89	84.27
626.082	38.4
626.275	24.88
626.467	148.17
626.659	83.86
626.851	207.56
627.044	73.21
627.236	74.85
627.428	61.75
627.62	93.69
627.812	89.6
628.004	61.34
628.197	133.43
628.389	15.87
628.581	72.81
628.773	62.98
628.965	50.28
629.157	71.17
629.349	-13.62
629.541	76.9
629.733	31.44
629.925	90.01
630.117	74.44
630.309	21.2
630.501	73.21
630.693	94.51
630.885	92.47
631.077	10.96
631.268	87.55
631.46	95.33
631.652	42.09
631.844	45.36
632.036	47
632.228	56.42
632.419	81.82
632.611	17.51
632.803	15.05
632.995	142.85
633.186	96.97
633.378	87.14
633.57	66.25
633.761	94.92
633.953	69.53
634.144	32.67
634.336	50.28
634.528	73.62
634.719	12.19
634.911	31.03
635.102	35.53
635.294	35.53
635.485	76.9
635.677	62.98
635.868	-23.45
636.06	52.33
636.251	14.23
636.443	62.98
636.634	76.08
636.825	88.78
637.017	-13.21
637.208	49.05
637.399	56.83
637.591	123.19
637.782	35.12
637.973	29.39
638.165	30.21
638.356	124.82
638.547	54.78
638.738	45.36
638.929	78.95
639.121	71.17
639.312	18.74
639.503	16.28
639.694	35.53
639.885	82.64
640.076	9.32
640.267	25.7
640.458	101.48
640.649	5.63
640.841	30.62
641.032	66.66
641.223	124
641.414	53.55
641.604	8.5
641.795	8.91
641.986	9.32
642.177	67.89
642.368	49.87
642.559	85.91
642.75	15.05
642.941	27.75
643.132	121.55
643.322	27.34
643.513	39.22
643.704	42.5
643.895	115.4
644.085	88.78
644.276	6.45
644.467	78.95
644.658	78.95
644.848	65.43
645.039	-4.61
645.23	53.14
645.42	-12.39
645.611	64.2
645.801	80.59
645.992	53.96
646.183	49.46
646.373	49.05
646.564	32.26
646.754	117.86
646.945	71.99
647.135	105.16
647.326	28.57
647.516	114.17
647.707	60.93
647.897	75.26
648.087	44.95
648.278	85.09
648.468	66.66
648.658	22.83
648.849	20.79
649.039	89.6
649.229	29.8
649.42	73.62
649.61	103.52
649.8	24.88
649.99	86.73
650.181	60.93
650.371	116.63
650.561	17.1
650.751	101.48
650.941	19.56
651.131	28.16
651.321	74.85
651.512	47
651.702	27.75
651.892	58.47
652.082	75.67
652.272	63.79
652.462	108.03
652.652	44.13
652.842	69.94
653.032	27.75
653.222	47
653.412	28.57
653.601	-14.85
653.791	65.02
653.981	106.8
654.171	63.38
654.361	60.11
654.551	-2.97
654.741	37.17
654.93	45.77
655.12	121.14
655.31	96.56
655.5	-9.11
655.689	-35.33
655.879	112.95
656.069	39.63
656.258	50.28
656.448	37.17
656.638	112.95
656.827	119.5
657.017	-0.92
657.207	89.6
657.396	67.89
657.586	14.64
657.775	121.55
657.965	41.27
658.154	81.82
658.344	47.41
658.533	24.88
658.723	10.14
658.912	62.57
659.102	-5.84
659.291	-1.74
659.48	48.23
659.67	28.98
659.859	22.43
660.048	24.06
660.238	46.59
660.427	5.63
660.616	-64.82
660.806	131.79
660.995	69.53
661.184	85.09
661.373	-17.31
661.562	22.43
661.752	-7.88
661.941	76.49
662.13	38.4
662.319	125.64
662.508	86.73
662.697	139.57
662.886	41.68
663.075	53.14
663.264	-17.31
663.453	108.85
663.643	37.58
663.832	79.36
664.02	18.74
664.209	56.42
664.398	77.72
664.587	121.14
664.776	108.03
664.965	92.88
665.154	47
665.343	96.97
665.532	54.37
665.721	17.92
665.909	98.2
666.098	50.69
666.287	111.31
666.476	42.09
666.664	31.85
666.853	64.61
667.042	43.31
667.231	18.33
667.419	7.27
667.608	34.71
667.797	35.53
667.985	78.95
668.174	-11.98
668.362	67.48
668.551	77.31
668.739	64.2
668.928	28.16
669.117	30.21
669.305	44.13
669.494	106.39
669.682	56.01
669.87	45.77
670.059	78.54
670.247	64.61
670.436	31.44
670.624	33.48
670.812	44.54
671.001	97.79
671.189	-80.38
671.377	92.47
671.566	24.88
671.754	94.1
671.942	47
672.131	-30.41
672.319	107.62
672.507	131.38
672.695	47.82
672.883	80.59
673.072	66.66
673.26	121.96
673.448	14.64
673.636	44.13
673.824	41.68
674.012	66.66
674.2	44.54
674.388	100.66
674.576	75.26
674.764	68.3
674.952	65.43
675.14	38.81
675.328	54.37
675.516	8.09
675.704	-41.47
675.892	71.58
676.08	18.74
676.268	45.77
676.456	22.02
676.643	-3.79
676.831	52.33
677.019	54.37
677.207	33.07
677.395	44.13
677.582	71.99
677.77	70.35
677.958	107.62
678.146	13.82
678.333	96.56
678.521	-2.97
678.709	34.3
678.896	35.53
679.084	31.44
679.271	26.93
679.459	69.12
679.647	1.13
679.834	113.36
680.022	24.06
680.209	42.09
680.397	55.6
680.584	22.83
680.772	71.99
680.959	34.71
681.147	41.68
681.334	-3.79
681.521	-11.98
681.709	126.87
681.896	26.93
682.083	8.91
682.271	53.55
682.458	32.26
682.645	33.89
682.833	34.71
683.02	83.45
683.207	18.33
683.394	23.24
683.582	54.37
683.769	77.31
683.956	6.45
684.143	41.27
684.33	78.95
684.517	25.29
684.705	10.55
684.892	44.95
685.079	113.76
685.266	78.13
685.453	26.11
685.64	88.78
685.827	-29.18
686.014	15.46
686.201	42.5
686.388	78.54
686.575	44.13
686.762	86.73
686.948	27.34
687.135	64.61
687.322	94.51
687.509	63.38
687.696	17.92
687.883	65.02
688.07	39.22
688.256	38.81
688.443	45.36
688.63	2.76
688.817	67.07
689.003	58.06
689.19	-20.17
689.377	-0.1
689.563	13.41
689.75	31.03
689.937	-9.52
690.123	48.64
690.31	96.56
690.496	11.37
690.683	12.6
690.869	68.3
691.056	36.76
691.242	33.07
691.429	49.05
691.615	9.32
691.802	-0.51
691.988	8.5
692.175	-4.2
692.361	22.02
692.548	35.53
692.734	26.93
692.92	8.91
693.107	-26.32
693.293	32.26
693.479	45.36
693.665	42.5
693.852	-2.56
694.038	49.05
694.224	161.69
694.41	79.77
694.597	42.5
694.783	108.44
694.969	11.37
695.155	-2.15
695.341	58.47
695.527	13
695.713	68.71
695.9	-23.45
696.086	31.85
696.272	90.83
696.458	76.9
696.644	36.35
696.83	42.9
697.016	53.55
697.202	101.48
697.387	-18.12
697.573	29.39
697.759	106.8
697.945	77.72
698.131	33.48
698.317	41.68
698.503	69.53
698.689	40.45
698.874	44.54
699.06	-25.5
699.246	-25.5
699.432	74.03
699.617	35.53
699.803	25.29
699.989	46.18
700.174	24.88
700.36	49.46
700.546	20.38
700.731	13
700.917	57.24
701.103	34.3
701.288	49.05
701.474	50.69
701.659	21.2
701.845	-49.25
702.03	29.8
702.216	113.36
702.401	136.7
702.587	23.24
702.772	12.19
702.958	-30.41
703.143	65.02
703.328	-14.03
703.514	82.23
703.699	58.06
703.884	10.14
704.07	19.97
704.255	109.26
704.44	76.9
704.626	88.37
704.811	102.3
704.996	95.74
705.181	60.93
705.366	78.13
705.552	66.66
705.737	40.45
705.922	10.96
706.107	76.08
706.292	35.94
706.477	114.17
706.662	46.18
706.847	46.59
707.032	34.71
707.217	67.48
707.402	20.79
707.587	13
707.772	14.64
707.957	11.37
708.142	97.79
708.327	72.81
708.512	-41.06
708.697	88.37
708.882	-36.15
709.067	25.7
709.252	-22.22
709.436	22.83
709.621	71.17
709.806	57.65
709.991	28.16
710.175	15.46
710.36	43.31
710.545	63.38
710.73	41.68
710.914	15.87
711.099	-26.73
711.284	122.37
711.468	45.77
711.653	99.02
711.837	-16.49
712.022	135.88
712.206	-16.49
712.391	70.76
712.576	53.55
712.76	0.72
712.944	75.67
713.129	28.57
713.313	24.88
713.498	67.48
713.682	17.1
713.867	76.9
714.051	4.81
714.235	33.07
714.42	70.35
714.604	-33.28
714.788	24.88
714.973	-0.1
715.157	1.95
715.341	22.02
715.525	102.3
715.71	8.09
715.894	58.06
716.078	78.13
716.262	55.19
716.446	22.83
716.63	31.03
716.815	-2.15
716.999	32.26
717.183	83.45
717.367	57.24
717.551	85.5
717.735	3.58
717.919	64.61
718.103	29.39
718.287	13.82
718.471	8.5
718.655	58.06
718.839	10.14
719.023	47
719.207	104.34
719.39	108.03
719.574	96.97
719.758	54.78
719.942	33.89
720.126	81
720.31	-18.94
720.493	42.09
720.677	22.02
720.861	84.68
721.044	24.47
721.228	11.78
721.412	-18.94
721.596	16.69
721.779	9.73
721.963	12.6
722.146	0.72
722.33	22.02
722.514	34.3
722.697	46.18
722.881	122.78
723.064	38.81
723.248	-14.85
723.431	68.71
723.615	15.05
723.798	11.37
723.982	33.48
724.165	13
724.348	-12.8
724.532	70.76
724.715	-2.97
724.898	-11.57
725.082	44.95
725.265	57.24
725.448	22.02
725.632	22.83
725.815	88.37
725.998	53.96
726.181	-60.72
726.365	14.23
726.548	18.74
726.731	64.61
726.914	-13.62
727.097	49.87
727.28	30.21
727.463	41.27
727.647	108.44
727.83	12.6
728.013	80.59
728.196	99.02
728.379	62.16
728.562	59.7
728.745	34.3
728.928	65.43
729.111	-39.42
729.294	14.64
729.476	6.04
729.659	43.72
729.842	66.66
730.025	-20.99
730.208	20.79
730.391	22.02
730.574	36.35
730.756	114.99
730.939	60.93
731.122	162.51
731.305	41.27
731.487	-21.81
731.67	45.77
731.853	75.26
732.035	19.97
732.218	67.89
732.401	39.22
732.583	46.59
732.766	6.86
732.948	26.52
733.131	91.24
733.313	82.23
733.496	105.57
733.678	-0.92
733.861	-19.76
734.043	44.54
734.226	-16.9
734.408	17.1
734.591	4.4
734.773	105.16
734.956	-55.81
735.138	35.53
735.32	44.54
735.503	53.55
735.685	8.91
735.867	101.48
736.049	49.46
736.232	88.78
736.414	-34.1
736.596	27.75
736.778	35.94
736.961	48.23
737.143	-12.39
737.325	-9.52
737.507	62.16
737.689	72.81
737.871	16.28
738.053	101.48
738.235	-23.86
738.417	85.5
738.599	31.44
738.781	35.53
738.963	-25.91
739.145	56.01
739.327	53.55
739.509	-5.02
739.691	-19.76
739.873	29.39
740.055	19.15
740.237	53.14
740.419	71.99
740.601	46.59
740.782	8.09
740.964	24.47
741.146	68.3
741.328	131.79
741.509	-2.97
741.691	9.32
741.873	46.59
742.055	84.68
742.236	78.13
742.418	90.83
742.6	16.28
742.781	-10.75
742.963	4.4
743.144	18.33
743.326	81.41
743.508	19.56
743.689	-9.93
743.871	63.79
744.052	-36.97
744.234	46.18
744.415	-22.63
744.596	29.39
744.778	15.05
744.959	4.4
745.141	-35.33
745.322	43.72
745.503	-0.1
745.685	57.65
745.866	-26.73
746.047	-12.8
746.229	2.76
746.41	28.16
746.591	49.05
746.772	21.2
746.954	-31.23
747.135	62.16
747.316	42.5
747.497	90.01
747.678	31.03
747.859	3.99
748.041	51.1
748.222	77.72
748.403	103.12
748.584	64.2
748.765	25.7
748.946	86.32
749.127	47.82
749.308	128.1
749.489	41.68
749.67	80.18
749.851	80.59
750.032	-55.81
750.212	46.18
750.393	29.8
750.574	7.27
750.755	90.83
750.936	-3.38
751.117	20.79
751.297	1.13
751.478	97.79
751.659	-12.8
751.84	59.29
752.02	2.36
752.201	9.32
752.382	-13.62
752.562	-34.1
752.743	65.43
752.924	45.77
753.104	47
753.285	6.86
753.466	78.54
753.646	8.09
753.827	18.33
754.007	35.53
754.188	126.87
754.368	57.65
754.549	70.76
754.729	27.75
754.909	35.94
755.09	56.42
755.27	17.1
755.451	54.78
755.631	14.23
755.811	37.99
755.992	9.73
756.172	42.09
756.352	55.19
756.533	30.21
756.713	14.64
756.893	62.98
757.073	26.52
757.253	102.3
757.434	57.65
757.614	-11.57
757.794	24.88
757.974	-0.92
758.154	51.1
758.334	96.97
758.514	-6.25
758.694	70.76
758.875	27.75
759.055	66.25
759.235	35.53
759.415	-1.33
759.594	51.51
759.774	-7.48
759.954	32.26
760.134	29.8
760.314	68.3
760.494	33.07
760.674	34.3
760.854	49.05
761.034	17.1
761.213	69.12
761.393	17.1
761.573	11.37
761.753	30.21
761.932	58.88
762.112	62.16
762.292	-34.1
762.472	47.41
762.651	-21.81
762.831	49.05
763.01	84.27
763.19	15.05
763.37	38.4
763.549	67.48
763.729	42.5
763.908	34.71
764.088	23.65
764.267	-19.76
764.447	42.09
764.626	-32.05
764.806	85.09
764.985	18.74
765.165	21.2
765.344	24.06
765.523	76.49
765.703	4.81
765.882	89.6
766.061	-8.7
766.241	48.23
766.42	28.98
766.599	114.58
766.779	-4.2
766.958	13.41
767.137	-17.71
767.316	60.93
767.495	99.02
767.675	-15.67
767.854	-0.92
768.033	145.71
768.212	73.21
768.391	12.6
768.57	74.03
768.749	51.92
768.928	-32.05
769.107	35.53
769.286	-18.94
769.465	8.91
769.644	47.82
769.823	54.37
770.002	61.75
770.181	-12.8
770.36	24.88
770.539	16.28
770.718	97.79
770.896	16.69
771.075	26.93
771.254	49.87
771.433	87.55
771.612	20.38
771.79	46.59
771.969	41.27
772.148	45.77
772.326	-5.02
772.505	44.95
772.684	60.93
772.862	47.41
773.041	76.49
773.22	-4.2
773.398	36.35
773.577	-16.9
773.755	104.75
773.934	40.86
774.112	-7.07
774.291	47.82
774.469	23.65
774.648	86.32
774.826	6.04
775.005	-36.56
775.183	73.62
775.362	41.68
775.54	143.67
775.718	80.59
775.897	102.3
776.075	-15.26
776.253	44.54
776.432	54.78
776.61	31.03
776.788	-11.98
776.966	28.57
777.144	10.55
777.323	23.65
777.501	31.44
777.679	56.83
777.857	62.98
778.035	26.52
778.213	31.03
778.391	-7.07
778.57	-12.8
778.748	90.42
778.926	11.37
779.104	44.95
779.282	71.99
779.46	73.21
779.638	12.19
779.815	77.31
779.993	48.64
780.171	-8.7
780.349	65.02
780.527	84.27
780.705	42.09
780.883	71.58
781.061	135.47
781.238	10.55
781.416	34.3
781.594	64.61
781.772	-60.31
781.949	-20.17
782.127	47.41
782.305	51.51
782.482	-29.18
782.66	-45.16
782.838	-59.08
783.015	70.35
783.193	8.09
783.37	35.94
783.548	108.44
783.726	26.93
783.903	19.15
784.081	19.56
784.258	85.5
784.436	71.99
784.613	5.22
784.79	74.03
784.968	117.86
785.145	25.29
785.323	9.73
785.5	13
785.677	-26.32
785.855	-32.05
786.032	63.38
786.209	38.4
786.386	38.81
786.564	46.18
786.741	6.04
786.918	27.75
787.095	-4.61
787.273	48.64
787.45	34.3
787.627	58.47
787.804	-40.24
787.981	61.34
788.158	68.71
788.335	4.81
788.512	26.93
788.689	78.95
788.866	12.6
789.043	82.64
789.22	78.54
789.397	37.99
789.574	40.45
789.751	105.98
789.928	45.77
790.105	74.85
790.282	40.04
790.459	6.86
790.635	34.3
790.812	11.37
790.989	11.78
791.166	52.74
791.343	78.13
791.519	74.03
791.696	117.86
791.873	-16.08
792.049	74.44
792.226	-5.43
792.403	78.95
792.579	84.27
792.756	73.62
792.933	37.99
793.109	10.55
793.286	90.42
793.462	40.04
793.639	64.61
793.815	13
793.992	32.26
794.168	44.13
794.345	36.76
794.521	86.73
794.698	13.41
794.874	65.84
795.05	48.23
795.227	27.75
795.403	15.05
795.579	107.21
795.756	81.41
795.932	40.04
796.108	37.58
796.285	62.57
796.461	69.12
796.637	13
796.813	31.44
796.989	1.95
797.166	35.94
797.342	-0.1
797.518	59.29
797.694	74.44
797.87	103.93
798.046	74.85
798.222	137.93
798.398	9.73
798.574	64.61
798.75	32.67
798.926	33.07
799.102	-9.93
799.278	51.1
799.454	78.95
799.63	43.31
799.806	53.14
799.982	71.58
800.157	69.94
800.333	105.57
800.509	95.33
800.685	151.86
800.861	228.86
801.036	164.96
801.212	124.41
801.388	216.57
801.564	119.91
801.739	245.24
801.915	155.95
802.091	185.85
802.266	355.83
802.442	359.52
802.617	620.02
802.793	1071.39
802.969	1525.63
803.144	1993.8
803.32	2617.61
803.495	3325.39
803.671	3986.88
803.846	4776.99
804.022	5576.93
804.197	6442.4
804.372	6964.22
804.548	7637.59
804.723	8761.93
804.898	10624.35
805.074	12957.81
805.249	14775.99
805.424	14753.87
805.6	12553.95
805.775	10022.25
805.95	8380.19
806.125	6915.07
806.301	5554.81
806.476	4306.78
806.651	3579.75
806.826	2919.48
807.001	2380.87
807.176	2009.36
807.352	1722.24
807.527	1470.75
807.702	1373.27
807.877	1048.46
808.052	1001.76
808.227	906.33
808.402	742.9
808.577	692.11
808.752	500.01
808.927	429.15
809.102	320.2
809.276	192
809.451	275.55
809.626	187.08
809.801	95.74
809.976	139.98
810.151	79.36
810.325	119.5
810.5	31.85
810.675	103.52
810.85	147.76
811.024	57.65
811.199	40.86
811.374	110.9
811.548	33.48
811.723	61.34
811.898	34.3
812.072	99.43
812.247	96.15
812.421	64.2
812.596	62.57
812.77	133.02
812.945	113.36
813.119	110.08
813.294	145.71
813.468	53.14
813.643	89.19
813.817	22.02
813.992	31.03
814.166	37.17
814.34	-20.17
814.515	8.91
814.689	49.05
814.863	-27.14
815.038	17.92
815.212	-6.25
815.386	53.14
815.56	30.62
815.735	40.04
815.909	40.86
816.083	103.93
816.257	118.68
816.431	39.63
816.605	55.19
816.78	31.44
816.954	76.49
817.128	19.56
817.302	110.49
817.476	68.71
817.65	56.01
817.824	67.48
817.998	3.99
818.172	16.28
818.346	15.87
818.52	36.76
818.694	4.81
818.867	168.24
819.041	95.74
819.215	-2.97
819.389	27.75
819.563	88.37
819.737	-52.94
819.91	-2.56
820.084	51.1
820.258	63.79
820.432	16.28
820.605	55.6
820.779	1.95
820.953	-3.38
821.126	76.08
821.3	54.78
821.473	26.11
821.647	38.4
821.821	66.66
821.994	52.33
822.168	107.62
822.341	67.48
822.515	-0.51
822.688	63.38
822.862	16.69
823.035	67.07
823.208	15.46
823.382	71.58
823.555	60.11
823.729	32.26
823.902	69.53
824.075	69.53
824.249	18.33
824.422	61.34
824.595	27.75
824.768	72.4
824.942	26.52
825.115	67.07
825.288	-34.92
825.461	51.1
825.634	32.67
825.808	12.6
825.981	-5.02
826.154	97.79
826.327	41.68
826.5	78.13
826.673	0.31
826.846	49.05
827.019	-11.57
827.192	-39.83
827.365	15.46
827.538	64.61
827.711	-4.2
827.884	27.75
828.057	124.82
828.23	91.24
828.403	19.15
828.575	-24.27
828.748	-21.4
828.921	44.54
829.094	-5.43
829.267	73.21
829.439	24.88
829.612	64.2
829.785	-25.5
829.957	-32.05
830.13	9.73
830.303	-34.51
830.475	-2.15
830.648	-30.82
830.821	56.42
830.993	-10.34
831.166	54.37
831.338	69.94
831.511	30.21
831.683	-11.16
831.856	28.57
832.028	21.2
832.201	43.31
832.373	-30
832.546	31.85
832.718	1.95
832.891	-20.17
833.063	44.13
833.235	100.25
833.408	50.28
833.58	30.21
833.752	36.76
833.924	53.96
834.097	89.6
834.269	52.33
834.441	4.81
834.613	27.34
834.785	-37.38
834.958	65.02
835.13	96.56
835.302	4.81
835.474	15.05
835.646	0.72
835.818	35.53
835.99	3.17
836.162	67.07
836.334	55.19
836.506	139.98
836.678	69.12
836.85	43.72
837.022	-39.01
837.194	52.74
837.366	27.34
837.538	-26.32
837.71	35.94
837.882	35.94
838.053	75.67
838.225	-40.65
838.397	35.53
838.569	4.81
838.74	-23.86
838.912	122.78
839.084	-5.84
839.256	62.57
839.427	52.74
839.599	28.57
839.771	31.85
839.942	-16.08
840.114	10.96
840.285	6.86
840.457	93.28
840.628	26.52
840.8	20.38
840.971	60.11
841.143	4.4
841.314	23.65
841.486	131.79
841.657	68.71
841.829	57.24
842	36.76
842.171	-12.39
842.343	85.09
842.514	-19.76
842.686	29.39
842.857	48.64
843.028	50.69
843.199	-23.86
843.371	13.41
843.542	-2.56
843.713	29.8
843.884	-28.77
844.055	29.39
844.227	48.23
844.398	17.51
844.569	35.12
844.74	95.74
844.911	-16.9
845.082	52.74
845.253	7.27
845.424	3.17
845.595	27.34
845.766	48.64
845.937	1.95
846.108	-7.88
846.279	55.19
846.45	68.3
846.621	9.73
846.792	67.48
846.962	78.13
847.133	40.45
847.304	54.37
847.475	34.3
847.646	23.65
847.816	91.24
847.987	88.37
848.158	36.76
848.329	51.1
848.499	133.83
848.67	81.41
848.841	60.52
849.011	34.71
849.182	76.08
849.352	20.79
849.523	1.54
849.693	78.54
849.864	60.93
850.034	29.8
850.205	95.33
850.375	-13.21
850.546	-57.86
850.716	-8.7
850.887	10.55
851.057	-23.45
851.228	-36.97
851.398	-77.93
851.568	10.14
851.739	7.68
851.909	64.2
852.079	-1.33
852.249	45.77
852.42	74.44
852.59	9.73
852.76	44.54
852.93	85.09
853.1	13.82
853.271	82.64
853.441	65.02
853.611	-23.45
853.781	-12.39
853.951	106.39
854.121	52.33
854.291	35.53
854.461	1.95
854.631	59.29
854.801	-32.46
854.971	41.68
855.141	46.18
855.311	24.06
855.481	58.88
855.651	-45.98
855.821	44.54
855.991	53.96
856.16	-5.02
856.33	35.94
856.5	124.41
856.67	26.52
856.84	-3.79
857.009	33.48
857.179	76.08
857.349	34.3
857.518	36.35
857.688	59.7
857.858	1.54
858.027	38.4
858.197	41.68
858.367	12.19
858.536	59.29
858.706	70.35
858.875	42.09
859.045	50.28
859.214	19.97
859.384	67.07
859.553	20.79
859.723	24.88
859.892	25.7
860.061	39.22
860.231	18.33
860.4	83.45
860.569	-32.05
860.739	1.13
860.908	1.54
861.077	-4.2
861.247	76.08
861.416	61.75
861.585	43.72
861.754	41.68
861.924	75.67
862.093	-20.99
862.262	50.69
862.431	65.02
862.6	47.41
862.769	-1.33
862.938	15.46
863.107	81
863.276	51.1
863.445	17.51
863.614	13.82
863.783	53.14
863.952	84.68
864.121	77.72
864.29	-40.65
864.459	2.76
864.628	48.64
864.797	42.09
864.966	-12.39
865.135	3.17
865.303	12.19
865.472	21.61
865.641	34.71
865.81	22.43
865.979	-41.47
866.147	36.35
866.316	53.14
866.485	53.96
866.653	74.44
866.822	-7.07
866.991	38.81
867.159	-48.43
867.328	20.79
867.496	66.25
867.665	-8.7
867.833	48.64
868.002	24.47
868.17	98.61
868.339	3.17
868.507	-4.61
868.676	130.97
868.844	58.06
869.013	-26.32
869.181	28.57
869.349	71.99
869.518	17.92
869.686	16.69
869.854	69.94
870.023	39.22
870.191	23.65
870.359	22.02
870.527	26.11
870.695	77.72
870.864	80.59
871.032	28.98
871.2	39.22
871.368	22.02
871.536	72.4
871.704	-11.98
871.872	19.97
872.04	92.47
872.209	-5.02
872.377	21.2
872.545	21.61
872.712	2.36
872.88	31.44
873.048	-1.33
873.216	78.95
873.384	8.91
873.552	72.81
873.72	-21.81
873.888	40.86
874.056	42.5
874.223	49.46
874.391	12.6
874.559	35.12
874.727	53.96
874.894	28.98
875.062	69.53
875.23	-12.8
875.398	80.18
875.565	32.67
875.733	-14.03
875.9	31.85
876.068	68.71
876.236	70.35
876.403	33.07
876.571	-5.84
876.738	69.94
876.906	67.07
877.073	-1.74
877.241	33.48
877.408	48.64
877.576	49.46
877.743	51.92
877.91	-22.63
878.078	18.74
878.245	1.13
878.412	18.74
878.58	51.1
878.747	34.71
878.914	-12.39
879.082	-9.11
879.249	-20.99
879.416	59.7
879.583	-7.88
879.75	8.5
879.918	25.7
880.085	-3.38
880.252	26.52
880.419	9.73
880.586	1.54
880.753	58.47
880.92	26.11
881.087	5.63
881.254	67.89
881.421	8.91
881.588	-29.18
881.755	4.81
881.922	28.16
882.089	44.95
882.256	-10.75
882.423	62.57
882.589	0.31
882.756	-4.2
882.923	43.72
883.09	-23.45
883.257	27.75
883.423	-20.17
883.59	11.37
883.757	3.99
883.924	53.55
884.09	23.65
884.257	38.81
884.424	37.99
884.59	58.47
884.757	-39.01
884.923	55.6
885.09	9.32
885.257	10.55
885.423	-2.15
885.59	-28.77
885.756	24.47
885.923	3.58
886.089	9.32
886.255	71.99
886.422	42.9
886.588	4.4
886.755	14.23
886.921	61.75
887.087	-25.09
887.254	87.55
887.42	37.17
887.586	-35.74
887.752	2.76
887.919	41.68
888.085	18.33
888.251	39.22
888.417	2.76
888.583	58.88
888.75	-22.63
888.916	58.88
889.082	-28.77
889.248	58.06
889.414	113.36
889.58	1.13
889.746	1.13
889.912	1.13
