Data from FLMT000111__4__14-00-20-113.txt Node

Date: Thu Oct 26 14:00:20 EDT 2023
User: Student
Spectrometer: FLMT00011
Trigger mode: 0
Integration Time (sec): 1.000000E-1
Scans to average: 5
Electric dark correction enabled: true
Nonlinearity correction enabled: false
Boxcar width: 0
XAxis mode: Wavelengths
Number of Pixels in Spectrum: 3648
>>>>>Begin Spectral Data<<<<<
171.25	-195.14
171.475	-195.14
171.699	-195.14
171.923	-201.69
172.147	27.27
172.371	102.64
172.595	7.61
172.819	1.47
173.043	-32.12
173.267	-20.24
173.491	45.7
173.715	-15.33
173.939	5.56
174.163	26.45
174.387	-40.31
174.611	-58.33
174.835	-23.11
175.059	-25.57
175.283	4.33
175.507	-39.08
175.73	31.78
175.954	-8.36
176.178	-14.51
176.402	-57.1
176.626	-19.83
176.85	-21.88
177.073	-36.62
177.297	26.86
177.521	-40.31
177.745	21.13
177.969	-0.17
178.192	18.26
178.416	-12.87
178.64	-82.91
178.863	-14.1
179.087	-36.21
179.311	-5.09
179.534	-44.82
179.758	-44.41
179.982	30.55
180.205	15.39
180.429	0.65
180.653	-27.61
180.876	12.12
181.1	-27.61
181.323	0.65
181.547	32.19
181.77	35.46
181.994	-6.31
182.217	-6.31
182.441	20.31
182.664	8.84
182.888	42.02
183.111	30.96
183.335	-20.65
183.558	16.62
183.782	60.45
184.005	28.5
184.228	-23.52
184.452	59.63
184.675	-61.2
184.899	58.81
185.122	-27.2
185.345	-22.7
185.569	-62.02
185.792	6.79
186.015	-61.61
186.238	-36.21
186.462	78.47
186.685	91.99
186.908	4.74
187.131	4.33
187.355	-16.55
187.578	-20.65
187.801	-28.43
188.024	22.36
188.247	42.84
188.471	-46.45
188.694	38.74
188.917	-8.77
189.14	5.15
189.363	26.45
189.586	-39.49
189.809	20.31
190.032	32.19
190.255	-10.41
190.478	-0.17
190.701	-3.45
190.924	20.31
191.147	-26.38
191.37	-18.19
191.593	39.15
191.816	-47.27
192.039	48.16
192.262	10.48
192.485	-45.64
192.708	28.09
192.931	6.38
193.154	-0.99
193.377	10.89
193.6	-3.86
193.822	-4.68
194.045	-14.51
194.268	20.72
194.491	73.56
194.714	11.3
194.936	15.8
195.159	0.65
195.382	45.29
195.605	-24.75
195.827	12.94
196.05	-2.22
196.273	37.92
196.495	8.43
196.718	50.62
196.941	2.7
197.163	-43.18
197.386	39.56
197.609	-50.14
197.831	-54.65
198.054	92.4
198.277	5.15
198.499	-33.76
198.722	-14.92
198.944	-2.22
199.167	1.88
199.389	15.39
199.612	-2.63
199.834	82.16
200.057	52.67
200.279	-46.86
200.502	-48.5
200.724	-3.86
200.947	-3.86
201.169	-10.82
201.391	-41.95
201.614	38.33
201.836	34.64
202.059	16.62
202.281	-34.58
202.503	-44.41
202.726	-16.96
202.948	-14.1
203.17	-38.67
203.393	-3.45
203.615	-36.62
203.837	-50.55
204.059	28.5
204.282	10.07
204.504	30.96
204.726	-58.74
204.948	-68.16
205.17	28.91
205.393	12.12
205.615	-12.05
205.837	50.62
206.059	-31.71
206.281	11.3
206.503	-23.93
206.725	21.95
206.947	-68.98
207.17	14.17
207.392	-32.12
207.614	-5.5
207.836	-25.16
208.058	19.9
208.28	-42.77
208.502	3.11
208.724	30.96
208.946	82.98
209.168	46.93
209.39	68.64
209.611	49.8
209.833	22.77
210.055	47.34
210.277	39.97
210.499	-6.72
210.721	14.57
210.943	-0.99
211.165	19.49
211.386	46.11
211.608	26.86
211.83	-21.06
212.052	12.94
212.274	36.28
212.495	3.93
212.717	-66.93
212.939	-23.93
213.161	-12.46
213.382	33.42
213.604	24.4
213.826	9.66
214.047	33.42
214.269	7.61
214.491	53.9
214.712	35.05
214.934	0.24
215.155	16.62
215.377	41.2
215.599	69.05
215.82	29.73
216.042	7.61
216.263	-60.79
216.485	24
216.706	29.32
216.928	-0.99
217.149	-8.36
217.371	38.33
217.592	23.59
217.814	-5.9
218.035	33.83
218.257	2.29
218.478	-20.24
218.699	57.58
218.921	20.72
219.142	45.7
219.363	-33.35
219.585	12.53
219.806	10.07
220.027	-57.51
220.249	27.68
220.47	46.11
220.691	8.43
220.913	33.01
221.134	56.35
221.355	-7.13
221.576	-28.84
221.798	-47.27
222.019	16.21
222.24	18.26
222.461	-12.87
222.682	24.81
222.903	8.84
223.125	-3.86
223.346	-10.82
223.567	-22.7
223.788	-17.37
224.009	-57.51
224.23	83.8
224.451	64.95
224.672	-10
224.893	-32.12
225.114	-39.49
225.335	-70.21
225.556	35.05
225.777	-3.45
225.998	16.21
226.219	-14.51
226.44	-5.9
226.661	11.3
226.882	71.92
227.103	-0.17
227.324	-33.35
227.544	32.6
227.765	-43.59
227.986	-21.88
228.207	-9.18
228.428	57.99
228.649	10.48
228.869	-16.14
229.09	22.36
229.311	39.97
229.532	-29.25
229.752	35.87
229.973	-14.92
230.194	64.55
230.415	1.06
230.635	71.51
230.856	7.2
231.077	44.07
231.297	29.73
231.518	39.56
231.739	-27.2
231.959	37.1
232.18	10.48
232.4	8.43
232.621	5.15
232.841	-34.17
233.062	-40.72
233.283	8.43
233.503	1.47
233.724	0.65
233.944	-0.17
234.165	-31.71
234.385	-19.42
234.605	30.14
234.826	-35.81
235.046	56.35
235.267	-11.64
235.487	-20.65
235.708	34.64
235.928	-43.59
236.148	25.63
236.369	34.24
236.589	10.07
236.809	-5.5
237.03	40.79
237.25	-1.81
237.47	-3.04
237.69	32.6
237.911	-4.68
238.131	46.11
238.351	26.86
238.571	3.11
238.792	-8.36
239.012	-11.64
239.232	-13.28
239.452	39.56
239.672	23.18
239.892	-13.28
240.112	-21.06
240.333	-19.83
240.553	-20.65
240.773	24
240.993	12.94
241.213	-39.49
241.433	-10.82
241.653	-1.4
241.873	-3.04
242.093	-50.14
242.313	-12.87
242.533	27.27
242.753	-0.99
242.973	28.91
243.193	-51.37
243.413	-2.63
243.633	6.38
243.853	-15.33
244.072	56.76
244.292	-0.99
244.512	-19.01
244.732	32.19
244.952	41.2
245.172	-0.99
245.391	14.98
245.611	-17.78
245.831	-25.16
246.051	28.91
246.271	36.69
246.49	-20.65
246.71	21.13
246.93	43.66
247.149	-2.22
247.369	-16.96
247.589	6.79
247.808	6.79
248.028	-54.65
248.248	42.02
248.467	15.39
248.687	25.63
248.906	-36.21
249.126	-27.61
249.346	-19.01
249.565	-42.36
249.785	-0.99
250.004	28.91
250.224	9.25
250.443	-16.14
250.663	26.04
250.882	115.74
251.102	3.11
251.321	24.4
251.541	2.29
251.76	6.38
251.979	30.96
252.199	58.81
252.418	-20.24
252.638	7.61
252.857	7.61
253.076	2.7
253.296	-3.45
253.515	-7.95
253.734	-5.9
253.953	30.96
254.173	1.47
254.392	16.21
254.611	32.6
254.83	4.74
255.05	-14.51
255.269	-7.54
255.488	-23.93
255.707	20.72
255.926	-7.54
256.146	1.88
256.365	56.35
256.584	-9.59
256.803	14.98
257.022	19.9
257.241	18.67
257.46	-45.23
257.679	10.48
257.898	12.53
258.117	7.2
258.336	24
258.555	8.02
258.774	-62.84
258.993	40.79
259.212	31.37
259.431	-80.86
259.65	5.15
259.869	-2.63
260.088	9.25
260.307	21.54
260.526	-3.86
260.745	33.01
260.964	123.53
261.182	14.57
261.401	-5.09
261.62	45.29
261.839	20.31
262.058	21.13
262.276	-71.44
262.495	32.6
262.714	13.76
262.933	10.07
263.151	-11.64
263.37	2.29
263.589	70.28
263.807	-55.06
264.026	-8.36
264.245	11.71
264.463	-1.81
264.682	14.57
264.901	9.25
265.119	-17.78
265.338	6.38
265.556	-52.19
265.775	17.03
265.994	18.67
266.212	21.95
266.431	18.67
266.649	-9.59
266.868	10.07
267.086	-43.59
267.305	-12.87
267.523	24
267.742	28.5
267.96	1.88
268.178	30.55
268.397	-13.28
268.615	12.53
268.834	37.92
269.052	-64.07
269.27	-10.41
269.489	-108.71
269.707	28.91
269.925	9.66
270.143	22.36
270.362	3.52
270.58	67.82
270.798	-36.62
271.017	11.3
271.235	5.15
271.453	7.2
271.671	-14.1
271.889	-3.86
272.108	2.7
272.326	-10.41
272.544	-50.55
272.762	23.18
272.98	-9.59
273.198	-19.42
273.416	-19.42
273.634	36.28
273.852	19.9
274.07	44.48
274.289	-15.33
274.507	9.66
274.725	-10
274.943	46.93
275.161	32.19
275.379	-12.05
275.596	-53.01
275.814	-65.71
276.032	3.11
276.25	24.4
276.468	18.26
276.686	-2.22
276.904	-22.29
277.122	-5.09
277.34	44.48
277.557	91.99
277.775	-33.35
277.993	-12.05
278.211	12.53
278.429	85.43
278.646	-27.61
278.864	36.28
279.082	-2.22
279.3	6.38
279.517	45.7
279.735	5.97
279.953	9.66
280.17	-19.01
280.388	8.43
280.606	-43.59
280.823	67.82
281.041	0.65
281.259	-50.96
281.476	38.33
281.694	11.71
281.911	21.95
282.129	17.44
282.346	6.38
282.564	-6.72
282.781	-43.18
282.999	-40.72
283.216	29.73
283.434	3.52
283.651	33.83
283.869	-44
284.086	-19.01
284.304	41.61
284.521	-16.96
284.738	-28.43
284.956	1.88
285.173	-44
285.391	4.33
285.608	20.72
285.825	16.21
286.043	-29.25
286.26	20.72
286.477	3.11
286.694	-13.69
286.912	27.68
287.129	30.96
287.346	-22.7
287.563	-25.98
287.78	-36.21
287.998	-19.01
288.215	25.63
288.432	14.98
288.649	17.44
288.866	48.16
289.083	-6.72
289.3	58.4
289.518	65.36
289.735	-22.29
289.952	6.79
290.169	37.1
290.386	-31.71
290.603	-30.48
290.82	27.27
291.037	-25.16
291.254	-23.52
291.471	-5.5
291.688	-23.11
291.905	-11.23
292.122	-16.14
292.339	-54.24
292.555	-12.87
292.772	11.3
292.989	3.52
293.206	8.84
293.423	-22.29
293.64	62.09
293.857	55.53
294.073	73.15
294.29	145.24
294.507	22.36
294.724	7.61
294.94	-21.47
295.157	-50.14
295.374	22.77
295.591	19.9
295.807	53.49
296.024	-10.82
296.241	37.92
296.457	39.15
296.674	-29.25
296.891	24.81
297.107	18.26
297.324	-34.99
297.54	12.94
297.757	-32.12
297.973	24.4
298.19	47.75
298.407	-25.57
298.623	-7.13
298.84	-5.09
299.056	-22.29
299.272	-11.64
299.489	-25.98
299.705	-0.99
299.922	-59.97
300.138	75.19
300.355	-7.54
300.571	36.69
300.787	11.71
301.004	55.94
301.22	24.4
301.436	-17.37
301.653	26.45
301.869	-18.19
302.085	43.66
302.302	-5.09
302.518	48.98
302.734	6.38
302.95	-1.81
303.167	25.63
303.383	57.17
303.599	13.76
303.815	22.36
304.031	-12.46
304.248	0.65
304.464	12.53
304.68	34.64
304.896	2.29
305.112	5.97
305.328	28.09
305.544	-26.38
305.76	-19.83
305.976	38.74
306.192	2.29
306.408	-7.95
306.624	-28.43
306.84	39.15
307.056	-32.94
307.272	73.15
307.488	19.49
307.704	14.98
307.92	7.2
308.136	57.58
308.352	60.86
308.568	6.79
308.784	2.7
309	27.27
309.215	-15.33
309.431	-5.9
309.647	-7.95
309.863	-1.4
310.079	26.45
310.294	-2.22
310.51	-29.66
310.726	-54.65
310.942	53.49
311.157	-20.65
311.373	42.02
311.589	-50.55
311.804	-24.75
312.02	30.55
312.236	1.06
312.451	24.4
312.667	46.52
312.883	-19.83
313.098	20.72
313.314	53.08
313.529	4.33
313.745	32.19
313.961	30.55
314.176	34.24
314.392	4.33
314.607	-13.69
314.823	33.42
315.038	-28.43
315.253	14.57
315.469	-25.98
315.684	4.33
315.9	-56.29
316.115	15.8
316.331	88.71
316.546	31.37
316.761	-20.24
316.977	46.11
317.192	51.85
317.407	71.92
317.623	-60.79
317.838	68.64
318.053	-5.5
318.268	28.5
318.484	-32.53
318.699	-16.55
318.914	-19.01
319.129	-16.14
319.344	60.86
319.56	42.02
319.775	20.72
319.99	36.69
320.205	-40.31
320.42	51.85
320.635	-10.82
320.85	73.15
321.066	8.43
321.281	20.72
321.496	-12.87
321.711	-17.78
321.926	14.17
322.141	-23.93
322.356	4.74
322.571	-11.64
322.786	-38.67
323.001	-14.51
323.216	-7.54
323.43	20.31
323.645	24
323.86	38.74
324.075	12.94
324.29	24.4
324.505	59.22
324.72	-30.48
324.935	22.77
325.149	12.53
325.364	27.27
325.579	5.56
325.794	-21.88
326.009	-14.1
326.223	-48.09
326.438	-23.52
326.653	-19.42
326.867	26.86
327.082	52.26
327.297	7.2
327.511	53.49
327.726	-20.65
327.941	-2.22
328.155	-75.13
328.37	-12.87
328.585	21.13
328.799	9.25
329.014	-1.81
329.228	-43.18
329.443	-5.5
329.657	-26.79
329.872	-13.69
330.086	30.14
330.301	47.75
330.515	6.79
330.73	23.59
330.944	24.4
331.159	-20.24
331.373	-44.41
331.587	-21.47
331.802	-15.74
332.016	8.02
332.231	5.56
332.445	69.87
332.659	70.28
332.874	10.07
333.088	93.22
333.302	-5.9
333.516	-30.07
333.731	14.57
333.945	38.33
334.159	-13.69
334.373	7.2
334.588	23.18
334.802	26.86
335.016	24
335.23	37.1
335.444	-3.04
335.658	-38.67
335.872	51.03
336.087	14.98
336.301	43.66
336.515	-22.29
336.729	50.21
336.943	6.79
337.157	47.34
337.371	-62.84
337.585	-46.86
337.799	27.68
338.013	-30.07
338.227	-34.99
338.441	40.38
338.655	69.05
338.869	91.17
339.083	-1.4
339.296	-27.2
339.51	-21.47
339.724	28.5
339.938	6.79
340.152	-28.02
340.366	8.02
340.58	47.75
340.793	-16.96
341.007	-5.09
341.221	-59.15
341.435	74.78
341.648	33.83
341.862	10.07
342.076	-17.78
342.29	41.61
342.503	-30.07
342.717	-7.13
342.931	-25.57
343.144	22.77
343.358	2.7
343.571	29.73
343.785	8.43
343.999	72.74
344.212	53.08
344.426	-16.55
344.639	-28.84
344.853	31.37
345.066	-14.51
345.28	29.73
345.493	-4.27
345.707	-18.6
345.92	3.11
346.134	7.61
346.347	3.11
346.561	-5.9
346.774	21.54
346.987	39.15
347.201	-24.34
347.414	-33.35
347.627	-58.74
347.841	18.67
348.054	5.97
348.267	52.26
348.481	17.03
348.694	9.66
348.907	-22.29
349.12	-6.72
349.334	-5.5
349.547	-31.3
349.76	25.22
349.973	-4.27
350.186	-38.67
350.4	-8.77
350.613	47.34
350.826	-17.37
351.039	-2.63
351.252	60.86
351.465	-31.71
351.678	-15.33
351.891	-3.45
352.104	-25.98
352.317	2.29
352.53	-22.29
352.743	-20.24
352.956	-24.75
353.169	10.07
353.382	62.09
353.595	-21.06
353.808	-21.88
354.021	7.2
354.234	97.72
354.447	-46.45
354.66	10.48
354.873	0.24
355.086	62.91
355.298	-5.5
355.511	15.8
355.724	8.84
355.937	91.58
356.15	45.7
356.362	30.14
356.575	-5.09
356.788	22.36
357.001	-28.02
357.213	1.88
357.426	14.17
357.639	27.27
357.851	-23.93
358.064	39.15
358.277	24.4
358.489	14.17
358.702	67.41
358.914	-41.54
359.127	19.9
359.34	19.08
359.552	24.81
359.765	-31.3
359.977	56.35
360.19	21.54
360.402	19.08
360.615	53.08
360.827	-31.3
361.04	64.14
361.252	-37.44
361.465	-15.74
361.677	0.24
361.889	40.79
362.102	-3.04
362.314	19.49
362.526	18.67
362.739	-2.63
362.951	-6.72
363.163	9.66
363.376	-57.51
363.588	8.02
363.8	-20.24
364.012	11.71
364.225	-59.56
364.437	22.77
364.649	38.33
364.861	15.8
365.074	-4.27
365.286	26.45
365.498	-49.32
365.71	7.61
365.922	-17.37
366.134	7.61
366.346	-7.95
366.558	39.97
366.77	-19.01
366.983	50.62
367.195	-42.36
367.407	62.09
367.619	39.56
367.831	30.55
368.043	-16.96
368.255	54.31
368.467	36.69
368.678	46.52
368.89	-61.61
369.102	52.26
369.314	10.48
369.526	19.9
369.738	-3.86
369.95	-12.46
370.162	40.79
370.373	-1.81
370.585	28.5
370.797	0.65
371.009	4.33
371.221	-7.95
371.432	-3.45
371.644	17.85
371.856	19.49
372.068	23.18
372.279	-15.74
372.491	18.26
372.703	-18.19
372.914	1.88
373.126	32.6
373.338	-19.83
373.549	20.31
373.761	21.54
373.972	-19.42
374.184	4.74
374.395	31.78
374.607	43.66
374.819	1.47
375.03	12.12
375.242	24.81
375.453	3.52
375.664	30.14
375.876	8.02
376.087	-10.41
376.299	37.51
376.51	-7.54
376.722	3.11
376.933	-7.13
377.144	107.96
377.356	-22.29
377.567	13.76
377.778	37.51
377.99	12.53
378.201	21.95
378.412	30.14
378.624	22.77
378.835	5.15
379.046	-42.77
379.257	-1.4
379.468	33.01
379.68	-13.69
379.891	-16.96
380.102	39.15
380.313	-25.98
380.524	52.26
380.735	-13.69
380.946	4.33
381.158	3.52
381.369	-41.95
381.58	48.98
381.791	-30.07
382.002	-13.69
382.213	21.13
382.424	38.74
382.635	56.35
382.846	73.97
383.057	30.55
383.268	-63.25
383.479	26.04
383.69	-12.87
383.9	37.51
384.111	21.54
384.322	-5.9
384.533	-10.41
384.744	32.6
384.955	10.07
385.166	39.15
385.376	-14.1
385.587	64.95
385.798	3.93
386.009	-1.81
386.22	-28.02
386.43	44.48
386.641	16.21
386.852	-15.33
387.062	39.56
387.273	30.14
387.484	-29.66
387.694	52.67
387.905	10.89
388.116	65.36
388.326	-17.78
388.537	62.5
388.747	2.29
388.958	28.5
389.168	17.03
389.379	5.56
389.59	-25.57
389.8	-16.55
390.011	-0.58
390.221	12.53
390.431	42.02
390.642	55.12
390.852	35.05
391.063	-20.65
391.273	50.21
391.484	1.47
391.694	-5.5
391.904	16.62
392.115	-0.99
392.325	5.15
392.535	3.93
392.746	12.53
392.956	53.49
393.166	-39.9
393.376	1.88
393.587	90.76
393.797	57.99
394.007	28.09
394.217	51.85
394.427	72.33
394.638	40.79
394.848	85.84
395.058	87.48
395.268	-27.61
395.478	16.21
395.688	-31.3
395.898	2.7
396.108	33.83
396.318	-23.93
396.528	42.84
396.738	36.28
396.948	78.06
397.158	-33.76
397.368	57.17
397.578	-54.65
397.788	-10
397.998	-49.73
398.208	-5.09
398.418	-22.29
398.628	1.88
398.838	15.39
399.048	21.13
399.258	58.81
399.467	15.39
399.677	-10
399.887	-31.3
400.097	-12.05
400.307	21.54
400.516	1.88
400.726	8.84
400.936	11.71
401.146	28.91
401.355	27.27
401.565	51.44
401.775	-20.65
401.984	11.3
402.194	-55.47
402.404	89.53
402.613	23.59
402.823	3.93
403.032	-12.05
403.242	1.06
403.452	-4.68
403.661	49.39
403.871	-30.48
404.08	79.7
404.29	53.49
404.499	-4.68
404.709	-35.4
404.918	12.12
405.128	-3.45
405.337	-31.3
405.546	-53.83
405.756	-5.5
405.965	21.13
406.175	14.57
406.384	-1.81
406.593	-5.09
406.803	-84.55
407.012	51.44
407.221	-43.18
407.43	-37.03
407.64	-42.36
407.849	-17.37
408.058	-47.68
408.267	-7.13
408.477	-14.1
408.686	-22.7
408.895	-50.55
409.104	-5.9
409.313	-49.32
409.522	-20.65
409.732	9.66
409.941	60.04
410.15	27.68
410.359	26.04
410.568	-65.3
410.777	67
410.986	-8.36
411.195	-73.49
411.404	37.92
411.613	23.18
411.822	10.48
412.031	50.21
412.24	11.3
412.449	-37.03
412.658	-22.7
412.867	-11.23
413.075	16.62
413.284	18.67
413.493	-9.59
413.702	-3.86
413.911	-7.54
414.12	-1.81
414.328	-0.58
414.537	2.29
414.746	-10.41
414.955	30.55
415.164	-39.08
415.372	-14.51
415.581	58.4
415.79	-18.6
415.998	-22.29
416.207	58.81
416.416	46.52
416.624	-7.95
416.833	42.43
417.042	25.63
417.25	19.08
417.459	-23.11
417.667	-11.64
417.876	-32.12
418.084	-12.05
418.293	-36.62
418.501	24
418.71	-44.41
418.918	30.55
419.127	19.9
419.335	-15.74
419.544	10.07
419.752	-11.64
419.96	69.05
420.169	-55.47
420.377	30.55
420.586	48.98
420.794	-2.63
421.002	6.38
421.211	10.48
421.419	-48.91
421.627	-39.49
421.835	29.73
422.044	0.24
422.252	-16.55
422.46	38.33
422.668	-10.82
422.877	-10
423.085	44.88
423.293	2.29
423.501	8.43
423.709	-64.48
423.917	-7.13
424.125	-50.55
424.333	-32.94
424.542	-5.09
424.75	-29.25
424.958	-39.49
425.166	28.5
425.374	110.42
425.582	23.59
425.79	-31.71
425.998	-30.48
426.206	48.57
426.414	33.42
426.621	-19.42
426.829	-18.6
427.037	2.29
427.245	34.24
427.453	-16.14
427.661	-53.83
427.869	65.77
428.077	-1.81
428.284	-30.48
428.492	5.56
428.7	-12.05
428.908	-36.21
429.115	39.97
429.323	11.71
429.531	-0.58
429.739	54.31
429.946	49.8
430.154	23.18
430.362	10.48
430.569	-6.31
430.777	44.07
430.985	-35.4
431.192	31.78
431.4	42.84
431.607	5.15
431.815	104.69
432.022	-23.52
432.23	-0.99
432.437	36.69
432.645	-28.84
432.852	-32.12
433.06	38.33
433.267	-4.27
433.475	0.24
433.682	98.54
433.89	-12.87
434.097	16.21
434.304	31.78
434.512	-4.27
434.719	16.62
434.926	-45.23
435.134	-69.8
435.341	53.08
435.548	61.68
435.756	39.97
435.963	-45.23
436.17	64.55
436.377	20.72
436.585	2.7
436.792	-5.9
436.999	-53.83
437.206	22.77
437.413	16.62
437.621	-50.55
437.828	49.39
438.035	-18.19
438.242	1.47
438.449	-10.82
438.656	39.97
438.863	56.35
439.07	-37.85
439.277	-4.27
439.484	-44.82
439.691	-16.14
439.898	39.97
440.105	-57.51
440.312	-16.14
440.519	-48.09
440.726	11.3
440.933	-24.75
441.14	3.93
441.347	21.54
441.553	33.01
441.76	19.49
441.967	4.74
442.174	27.27
442.381	-50.96
442.587	-40.31
442.794	26.86
443.001	-40.31
443.208	17.44
443.414	19.08
443.621	16.62
443.828	28.91
444.035	14.57
444.241	3.93
444.448	57.58
444.654	-19.01
444.861	34.64
445.068	88.3
445.274	-49.73
445.481	12.94
445.687	8.02
445.894	-40.31
446.101	30.14
446.307	43.66
446.514	-61.61
446.72	4.33
446.926	-9.59
447.133	-41.54
447.339	18.67
447.546	40.38
447.752	11.3
447.959	-71.44
448.165	-4.27
448.371	41.2
448.578	11.3
448.784	-3.45
448.99	81.34
449.197	-54.65
449.403	34.24
449.609	-11.64
449.816	47.34
450.022	-17.37
450.228	42.84
450.434	71.1
450.64	5.15
450.847	-7.54
451.053	55.12
451.259	15.39
451.465	15.8
451.671	57.99
451.877	94.86
452.083	32.19
452.289	41.61
452.496	-37.44
452.702	-29.66
452.908	8.84
453.114	33.83
453.32	-91.51
453.526	-5.5
453.732	-5.09
453.938	7.61
454.144	0.65
454.349	65.36
454.555	43.66
454.761	89.94
454.967	4.33
455.173	5.56
455.379	66.18
455.585	3.93
455.791	-15.74
455.996	11.3
456.202	9.66
456.408	-39.9
456.614	33.01
456.819	-39.9
457.025	29.32
457.231	30.96
457.437	-46.45
457.642	-10.41
457.848	31.78
458.054	-0.99
458.259	30.96
458.465	29.73
458.671	1.47
458.876	9.25
459.082	36.28
459.287	-16.96
459.493	43.25
459.698	17.85
459.904	61.68
460.109	26.04
460.315	0.24
460.52	-20.24
460.726	-4.68
460.931	16.21
461.137	30.96
461.342	62.91
461.548	-5.09
461.753	27.68
461.958	-25.16
462.164	66.18
462.369	-37.44
462.574	19.49
462.78	-7.54
462.985	-16.55
463.19	39.56
463.396	81.75
463.601	2.7
463.806	-15.74
464.011	-55.88
464.216	-16.55
464.422	-25.98
464.627	44.48
464.832	-26.38
465.037	-39.08
465.242	-0.99
465.447	-5.09
465.653	21.95
465.858	35.87
466.063	27.27
466.268	1.06
466.473	-60.79
466.678	96.9
466.883	38.33
467.088	67
467.293	35.46
467.498	26.86
467.703	21.95
467.908	0.24
468.113	-17.37
468.317	-32.12
468.522	105.91
468.727	8.02
468.932	-20.65
469.137	-6.72
469.342	-5.5
469.547	-18.6
469.751	27.68
469.956	36.28
470.161	-2.63
470.366	48.57
470.57	60.45
470.775	53.08
470.98	11.71
471.185	-21.06
471.389	-5.9
471.594	9.25
471.799	-64.48
472.003	33.83
472.208	15.8
472.412	37.1
472.617	-35.81
472.822	25.63
473.026	36.28
473.231	48.57
473.435	5.97
473.64	0.65
473.844	-4.27
474.049	23.59
474.253	9.25
474.458	-2.22
474.662	-6.72
474.866	23.59
475.071	18.67
475.275	-21.88
475.48	3.52
475.684	42.43
475.888	-4.68
476.093	51.85
476.297	50.21
476.501	22.77
476.706	-20.24
476.91	-31.71
477.114	10.89
477.318	23.18
477.523	-19.42
477.727	29.73
477.931	-3.04
478.135	0.65
478.339	11.3
478.543	-11.64
478.748	-23.11
478.952	6.38
479.156	-88.23
479.36	36.69
479.564	-43.59
479.768	17.85
479.972	9.66
480.176	-7.13
480.38	-56.29
480.584	11.71
480.788	-53.42
480.992	-8.36
481.196	-33.35
481.4	56.76
481.604	-5.09
481.808	41.2
482.012	-25.16
482.215	-17.78
482.419	10.89
482.623	9.66
482.827	-4.27
483.031	34.24
483.235	26.45
483.438	-16.96
483.642	-5.9
483.846	35.46
484.05	-12.87
484.253	-36.21
484.457	20.72
484.661	-14.1
484.864	22.77
485.068	25.22
485.272	23.59
485.475	24.4
485.679	20.72
485.883	7.2
486.086	17.44
486.29	19.08
486.493	-21.88
486.697	44.07
486.9	-60.38
487.104	23.59
487.307	-10
487.511	12.12
487.714	-53.42
487.918	-4.27
488.121	-39.9
488.325	-57.92
488.528	-41.54
488.731	-24.34
488.935	22.36
489.138	57.17
489.341	0.24
489.545	83.39
489.748	20.72
489.951	12.53
490.155	62.09
490.358	17.44
490.561	2.29
490.764	-35.81
490.967	-17.37
491.171	8.84
491.374	49.39
491.577	44.07
491.78	8.43
491.983	-24.75
492.186	-18.6
492.39	-16.96
492.593	-5.09
492.796	16.21
492.999	26.04
493.202	19.9
493.405	5.97
493.608	2.29
493.811	9.25
494.014	-32.94
494.217	-18.19
494.42	82.16
494.623	87.07
494.826	-24.34
495.029	3.11
495.231	27.68
495.434	35.87
495.637	33.01
495.84	28.09
496.043	-2.22
496.246	24.4
496.448	26.86
496.651	88.3
496.854	3.52
497.057	53.49
497.259	77.65
497.462	13.76
497.665	8.84
497.868	-19.01
498.07	-13.69
498.273	29.73
498.476	35.05
498.678	42.84
498.881	23.18
499.083	-31.3
499.286	64.55
499.489	-0.99
499.691	26.04
499.894	-10.82
500.096	71.92
500.299	-43.59
500.501	52.26
500.704	-27.2
500.906	3.11
501.109	-8.36
501.311	35.87
501.513	36.69
501.716	-55.47
501.918	-30.48
502.121	53.08
502.323	-51.37
502.525	-7.54
502.728	76.83
502.93	5.97
503.132	-35.81
503.334	-3.04
503.537	9.25
503.739	-8.36
503.941	-50.14
504.143	9.25
504.346	27.27
504.548	5.97
504.75	85.43
504.952	-12.05
505.154	-17.78
505.356	71.51
505.558	-11.23
505.761	58.4
505.963	7.61
506.165	44.07
506.367	8.43
506.569	54.31
506.771	73.97
506.973	-9.59
507.175	-62.02
507.377	60.04
507.579	-10.82
507.781	26.04
507.982	42.84
508.184	53.9
508.386	52.26
508.588	-23.52
508.79	-54.24
508.992	7.2
509.194	62.5
509.395	15.8
509.597	-17.78
509.799	28.91
510.001	76.42
510.203	35.46
510.404	-20.24
510.606	-11.64
510.808	32.19
511.009	-30.89
511.211	-8.36
511.413	63.32
511.614	24.81
511.816	26.45
512.018	-1.81
512.219	36.69
512.421	27.27
512.622	5.97
512.824	-44.82
513.025	-26.79
513.227	-19.42
513.428	76.42
513.63	-44
513.831	30.14
514.033	47.34
514.234	-23.52
514.436	48.57
514.637	-16.96
514.838	15.8
515.04	-26.38
515.241	-27.61
515.443	82.16
515.644	10.07
515.845	4.33
516.046	-14.51
516.248	103.05
516.449	36.69
516.65	-19.01
516.851	-25.16
517.053	12.94
517.254	5.56
517.455	50.21
517.656	24
517.857	-28.43
518.059	31.37
518.26	8.84
518.461	19.49
518.662	25.63
518.863	40.79
519.064	13.76
519.265	-28.43
519.466	-23.11
519.667	36.28
519.868	141.14
520.069	-33.76
520.27	-13.69
520.471	10.89
520.672	17.03
520.873	11.3
521.074	35.87
521.275	52.26
521.476	-3.86
521.676	65.77
521.877	8.43
522.078	57.99
522.279	-7.54
522.48	10.89
522.681	41.61
522.881	-1.81
523.082	7.61
523.283	14.98
523.483	-59.56
523.684	39.56
523.885	64.95
524.086	17.85
524.286	-53.01
524.487	-32.53
524.687	1.88
524.888	1.88
525.089	23.18
525.289	18.67
525.49	-40.31
525.69	11.71
525.891	59.63
526.091	-1.81
526.292	-53.42
526.492	-19.01
526.693	-14.92
526.893	-14.51
527.094	20.72
527.294	-12.05
527.495	-53.01
527.695	36.69
527.895	-38.67
528.096	1.06
528.296	6.79
528.496	-1.81
528.697	15.8
528.897	3.52
529.097	-17.37
529.298	30.55
529.498	-20.24
529.698	21.95
529.898	-47.68
530.098	-84.14
530.299	-11.23
530.499	0.24
530.699	28.5
530.899	-5.5
531.099	11.71
531.299	8.02
531.499	17.03
531.7	89.94
531.9	87.07
532.1	23.59
532.3	24.4
532.5	121.48
532.7	71.1
532.9	20.72
533.1	10.07
533.3	-39.9
533.5	64.95
533.699	39.56
533.899	42.84
534.099	14.17
534.299	37.51
534.499	46.11
534.699	3.11
534.899	-23.93
535.098	29.32
535.298	36.28
535.498	38.74
535.698	-5.5
535.898	17.85
536.097	15.39
536.297	15.39
536.497	30.55
536.696	31.37
536.896	-43.18
537.096	27.27
537.295	91.58
537.495	-0.58
537.695	-2.63
537.894	-10.41
538.094	37.92
538.293	53.49
538.493	77.24
538.692	121.07
538.892	68.23
539.091	-21.47
539.291	-20.24
539.49	-11.64
539.69	80.11
539.889	17.85
540.089	-29.66
540.288	-14.92
540.487	-118.13
540.687	35.05
540.886	2.29
541.085	-37.85
541.285	4.74
541.484	39.56
541.683	16.21
541.883	25.63
542.082	74.38
542.281	9.66
542.48	25.63
542.68	31.78
542.879	7.61
543.078	39.97
543.277	5.15
543.476	-42.77
543.675	-61.61
543.874	17.85
544.074	-3.86
544.273	10.48
544.472	-39.08
544.671	93.63
544.87	-8.77
545.069	26.45
545.268	73.97
545.467	109.19
545.666	19.08
545.865	5.56
546.064	87.89
546.263	33.42
546.462	0.65
546.66	-37.44
546.859	25.63
547.058	46.93
547.257	12.94
547.456	42.43
547.655	12.12
547.853	90.76
548.052	-5.5
548.251	-9.18
548.45	71.1
548.648	79.7
548.847	8.84
549.046	44.48
549.245	-27.2
549.443	-3.86
549.642	52.67
549.841	57.58
550.039	5.97
550.238	-0.17
550.436	6.79
550.635	3.93
550.834	5.97
551.032	8.43
551.231	-41.95
551.429	-7.54
551.628	4.74
551.826	46.52
552.025	-4.27
552.223	-59.56
552.421	-18.19
552.62	41.2
552.818	11.71
553.017	28.91
553.215	-48.91
553.413	39.97
553.612	-17.37
553.81	18.67
554.008	-31.71
554.207	54.71
554.405	62.5
554.603	7.2
554.801	6.79
555	45.7
555.198	67
555.396	-10.41
555.594	24
555.792	13.76
555.991	-10
556.189	95.26
556.387	58.4
556.585	-4.27
556.783	29.73
556.981	-32.94
557.179	79.7
557.377	-13.28
557.575	29.73
557.773	90.76
557.971	-0.17
558.169	9.66
558.367	57.99
558.565	-13.69
558.763	-0.99
558.961	30.96
559.159	-73.08
559.357	13.76
559.554	37.92
559.752	31.37
559.95	-11.64
560.148	-12.87
560.346	6.38
560.544	59.22
560.741	-4.27
560.939	10.07
561.137	23.18
561.334	-37.85
561.532	8.84
561.73	26.04
561.928	12.94
562.125	-24.75
562.323	9.25
562.52	-23.11
562.718	-18.6
562.916	92.4
563.113	9.25
563.311	-12.87
563.508	-4.27
563.706	23.18
563.903	16.21
564.101	26.04
564.298	46.93
564.496	20.72
564.693	0.65
564.891	13.76
565.088	85.02
565.285	-24.75
565.483	11.71
565.68	29.73
565.878	34.24
566.075	-14.92
566.272	6.79
566.469	-20.24
566.667	-20.65
566.864	-3.86
567.061	17.03
567.259	24.4
567.456	37.51
567.653	-21.88
567.85	21.54
568.047	-2.22
568.244	34.24
568.442	-76.76
568.639	15.8
568.836	-29.66
569.033	-1.4
569.23	-19.83
569.427	-14.92
569.624	-21.88
569.821	-5.09
570.018	0.65
570.215	22.36
570.412	8.02
570.609	-34.17
570.806	76.83
571.003	-11.23
571.2	18.26
571.397	62.09
571.594	-39.9
571.791	8.84
571.987	-52.6
572.184	34.24
572.381	-8.36
572.578	-23.93
572.775	1.06
572.971	3.52
573.168	15.8
573.365	37.1
573.562	-6.72
573.758	60.86
573.955	12.53
574.152	4.33
574.348	42.02
574.545	101
574.742	66.59
574.938	130.08
575.135	76.83
575.331	58.81
575.528	14.17
575.725	-16.14
575.921	-21.06
576.118	-14.92
576.314	-11.23
576.511	-48.5
576.707	47.75
576.903	-20.24
577.1	-38.67
577.296	-10.82
577.493	11.3
577.689	8.43
577.885	49.8
578.082	14.17
578.278	33.83
578.474	-8.36
578.671	-3.86
578.867	-14.51
579.063	-21.88
579.26	-29.66
579.456	85.02
579.652	-30.48
579.848	5.56
580.044	12.94
580.241	7.2
580.437	35.05
580.633	32.19
580.829	12.94
581.025	56.35
581.221	-12.05
581.417	-32.53
581.613	-0.99
581.809	49.8
582.005	39.97
582.201	25.63
582.397	18.67
582.593	24.81
582.789	75.6
582.985	134.59
583.181	823.52
583.377	1686.54
583.573	2096.13
583.769	2198.53
583.965	1870.85
584.161	1195.43
584.357	464.72
584.552	216.5
584.748	115.74
584.944	62.09
585.14	59.22
585.335	29.73
585.531	45.29
585.727	29.32
585.923	104.28
586.118	328.32
586.314	600.29
586.51	848.51
586.705	934.11
586.901	802.63
587.097	563.84
587.292	244.77
587.488	125.57
587.683	59.63
587.879	17.85
588.074	59.63
588.27	-16.14
588.465	38.33
588.661	110.42
588.856	44.07
589.052	44.48
589.247	51.44
589.443	-17.78
589.638	105.91
589.833	-6.72
590.029	21.13
590.224	27.27
590.419	21.13
590.615	-2.22
590.81	39.15
591.005	-11.64
591.201	10.89
591.396	33.42
591.591	18.67
591.786	56.35
591.981	8.02
592.177	31.37
592.372	392.22
592.567	926.33
592.762	1402.69
592.957	1701.69
593.152	1494.85
593.347	968.11
593.543	376.25
593.738	208.72
593.933	162.44
594.128	114.93
594.323	37.51
594.518	-7.13
594.713	-3.04
594.908	25.22
595.103	65.36
595.297	42.02
595.492	223.06
595.687	320.54
595.882	413.93
596.077	458.57
596.272	400
596.467	274.26
596.661	123.12
596.856	157.52
597.051	17.44
597.246	67.82
597.441	42.84
597.635	66.18
597.83	12.53
598.025	52.67
598.219	6.38
598.414	2.7
598.609	10.89
598.803	-26.79
598.998	23.18
599.193	-12.05
599.387	35.87
599.582	-30.07
599.776	58.81
599.971	3.11
600.165	17.44
600.36	26.86
600.554	-3.86
600.749	72.74
600.943	149.74
601.138	406.56
601.332	446.29
601.526	518.38
601.721	418.84
601.915	284.09
602.11	67
602.304	103.46
602.498	-7.13
602.693	-7.95
602.887	40.38
603.081	8.84
603.275	61.68
603.47	-66.12
603.664	41.61
603.858	-17.78
604.052	-14.92
604.246	72.33
604.441	-18.6
604.635	28.91
604.829	21.13
605.023	69.46
605.217	168.17
605.411	487.66
605.605	1088.12
605.799	1340.43
605.993	1373.2
606.187	1143.82
606.381	697.37
606.575	262.38
606.769	180.87
606.963	71.92
607.157	120.66
607.351	81.75
607.545	482.74
607.739	1128.26
607.933	1499.35
608.126	1730.36
608.32	1489.93
608.514	955
608.708	478.64
608.902	254.6
609.095	121.89
609.289	67.82
609.483	91.17
609.677	95.67
609.87	57.99
610.064	10.89
610.258	32.19
610.451	128.03
610.645	59.22
610.839	60.04
611.032	116.97
611.226	120.25
611.419	100.18
611.613	52.67
611.806	44.88
612	163.26
612.193	665.83
612.387	1696.78
612.58	2409.88
612.774	2916.14
612.967	2562.66
613.161	1931.88
613.354	846.46
613.548	476.6
613.741	309.48
613.934	152.61
614.128	105.09
614.321	422.94
614.514	760.85
614.707	816.56
614.901	975.07
615.094	808.78
615.287	415.16
615.48	198.89
615.674	144.42
615.867	125.98
616.06	87.07
616.253	5.15
616.446	-14.92
616.639	55.53
616.833	63.73
617.026	50.21
617.219	33.83
617.412	-10.82
617.605	51.44
617.798	57.17
617.991	-6.72
618.184	31.37
618.377	50.62
618.57	83.39
618.763	21.13
618.956	67
619.149	-7.13
619.341	-1.81
619.534	111.65
619.727	456.94
619.92	817.79
620.113	1071.74
620.306	921.42
620.498	839.09
620.691	477.01
620.884	180.05
621.077	99.77
621.269	46.52
621.462	98.95
621.655	-6.31
621.848	17.03
622.04	58.81
622.233	31.37
622.425	-29.66
622.618	28.09
622.811	-7.95
623.003	-34.58
623.196	123.12
623.388	30.14
623.581	14.17
623.773	30.14
623.966	55.53
624.158	84.21
624.351	121.48
624.543	427.85
624.736	884.14
624.928	1273.26
625.121	1444.47
625.313	1435.87
625.505	889.47
625.698	525.34
625.89	209.54
626.082	119.02
626.275	110.83
626.467	95.26
626.659	58.4
626.851	138.27
627.044	48.57
627.236	72.33
627.428	-5.5
627.62	46.52
627.812	70.28
628.004	10.48
628.197	100.18
628.389	184.15
628.581	522.47
628.773	760.04
628.965	850.15
629.157	744.06
629.349	407.38
629.541	223.47
629.733	149.74
629.925	55.94
630.117	88.71
630.309	-7.54
630.501	43.66
630.693	57.17
630.885	44.48
631.077	61.27
631.268	428.67
631.46	1319.95
631.652	2445.92
631.844	3080.79
632.036	3233.98
632.228	2404.14
632.419	1266.29
632.611	588.42
632.803	305.8
632.995	273.44
633.186	128.85
633.378	119.43
633.57	90.76
633.761	37.92
633.953	94.04
634.144	33.01
634.336	32.6
634.528	51.85
634.719	-41.54
634.911	10.48
635.102	33.42
635.294	-26.38
635.485	107.96
635.677	33.83
635.868	-0.58
636.06	187.42
636.251	757.58
636.443	1752.48
636.634	2410.29
636.825	2908.76
637.017	2509.82
637.208	1546.05
637.399	718.67
637.591	452.84
637.782	309.89
637.973	616.27
638.165	2288.23
638.356	5132.86
638.547	6627.88
638.738	7501.13
638.929	5832.85
639.121	3743.11
639.312	1711.11
639.503	891.11
639.694	589.23
639.885	429.9
640.076	220.19
640.267	132.95
640.458	159.57
640.649	52.67
640.841	13.76
641.032	81.34
641.223	133.36
641.414	55.94
641.604	-34.58
641.795	19.9
641.986	-2.22
642.177	33.01
642.368	-5.9
642.559	76.83
642.75	10.48
642.941	53.08
643.132	60.45
643.322	13.76
643.513	50.21
643.704	25.22
643.895	22.36
644.085	-14.51
644.276	-5.5
644.467	78.06
644.658	45.29
644.848	34.24
645.039	12.12
645.23	51.44
645.42	-39.49
645.611	12.94
645.801	85.84
645.992	-10.82
646.183	46.93
646.373	50.62
646.564	21.95
646.754	53.08
646.945	39.97
647.135	56.76
647.326	26.45
647.516	73.97
647.707	21.95
647.897	78.06
648.087	35.87
648.278	99.36
648.468	338.15
648.658	1182.33
648.849	2230.07
649.039	2949.72
649.229	2906.31
649.42	2292.74
649.61	1462.49
649.8	621.18
649.99	446.7
650.181	276.31
650.371	209.54
650.561	120.66
650.751	104.28
650.941	67
651.131	191.11
651.321	588.83
651.512	990.23
651.702	1207.31
651.892	1272.85
652.082	959.51
652.272	558.52
652.462	281.63
652.652	111.24
652.842	83.39
653.032	37.92
653.222	37.1
653.412	12.12
653.601	17.85
653.791	44.88
653.981	85.02
654.171	39.15
654.361	108.37
654.551	-23.93
654.741	-17.78
654.93	32.19
655.12	66.59
655.31	55.94
655.5	8.84
655.689	-25.98
655.879	83.39
656.069	-5.5
656.258	29.32
656.448	52.67
656.638	61.68
656.827	94.86
657.017	-13.69
657.207	55.53
657.396	35.05
657.586	13.35
657.775	316.85
657.965	705.15
658.154	1120.89
658.344	1247.04
658.533	1245.81
658.723	979.99
658.912	532.3
659.102	198.48
659.291	119.43
659.48	121.48
659.67	52.26
659.859	48.57
660.048	74.38
660.238	49.8
660.427	19.49
660.616	-26.38
660.806	86.25
660.995	21.54
661.184	54.31
661.373	-20.65
661.562	29.73
661.752	-11.23
661.941	8.43
662.13	23.18
662.319	79.7
662.508	37.51
662.697	59.22
662.886	-12.87
663.075	41.61
663.264	-52.6
663.453	42.43
663.643	17.85
663.832	17.03
664.02	8.84
664.209	80.93
664.398	41.2
664.587	112.06
664.776	106.73
664.965	53.08
665.154	25.22
665.343	66.18
665.532	144.83
665.721	429.49
665.909	1264.25
666.098	1835.63
666.287	2084.25
666.476	1920.41
666.664	1519.42
666.853	892.33
667.042	450.79
667.231	244.36
667.419	149.74
667.608	116.15
667.797	80.52
667.985	121.48
668.174	1.06
668.362	87.07
668.551	30.14
668.739	29.73
668.928	53.9
669.117	40.79
669.305	7.61
669.494	166.12
669.682	646.58
669.87	1322.82
670.059	1752.07
670.247	1682.85
670.436	1411.7
670.624	1055.35
670.812	504.86
671.001	320.54
671.189	75.6
671.377	199.71
671.566	85.02
671.754	71.92
671.942	47.75
672.131	-0.99
672.319	48.16
672.507	97.72
672.695	5.56
672.883	28.09
673.072	50.62
673.26	60.04
673.448	11.71
673.636	26.45
673.824	-10
674.012	34.24
674.2	19.9
674.388	25.63
674.576	22.77
674.764	39.97
674.952	16.62
675.14	7.61
675.328	-16.14
675.516	3.93
675.704	-52.6
675.892	-0.17
676.08	-18.19
676.268	35.46
676.456	11.71
676.643	43.66
676.831	24
677.019	43.25
677.207	21.95
677.395	-28.02
677.582	71.51
677.77	25.22
677.958	85.02
678.146	-9.18
678.333	54.31
678.521	-47.68
678.709	-17.78
678.896	-65.71
679.084	-4.68
679.271	-0.17
679.459	30.96
679.647	-22.29
679.834	98.13
680.022	15.39
680.209	23.18
680.397	5.56
680.584	8.84
680.772	30.14
680.959	5.15
681.147	28.5
681.334	-5.09
681.521	-46.86
681.709	76.01
681.896	5.97
682.083	11.71
682.271	34.24
682.458	25.22
682.645	80.52
682.833	20.31
683.02	44.88
683.207	-4.27
683.394	19.49
683.582	17.44
683.769	42.43
683.956	10.07
684.143	28.09
684.33	4.74
684.517	-21.06
684.705	53.49
684.892	10.48
685.079	101.41
685.266	31.37
685.453	-0.58
685.64	28.5
685.827	-18.6
686.014	6.38
686.201	17.85
686.388	10.07
686.575	-27.2
686.762	42.84
686.948	7.61
687.135	33.01
687.322	59.63
687.509	17.44
687.696	-4.27
687.883	78.06
688.07	11.3
688.256	3.52
688.443	48.57
688.63	23.18
688.817	51.03
689.003	70.69
689.19	-41.13
689.377	-21.06
689.563	-27.2
689.75	30.55
689.937	8.43
690.123	-1.81
690.31	53.49
690.496	-6.31
690.683	72.33
690.869	355.36
691.056	1043.06
691.242	1488.29
691.429	1638.2
691.615	1523.93
691.802	1279.4
691.988	777.24
692.175	295.56
692.361	257.05
692.548	156.7
692.734	133.36
692.92	58.4
693.107	28.91
693.293	68.64
693.479	44.48
693.665	37.51
693.852	-68.16
694.038	28.09
694.224	60.86
694.41	73.97
694.597	37.92
694.783	68.64
694.969	-23.93
695.155	11.71
695.341	50.62
695.527	-44.82
695.713	19.9
695.9	-4.68
696.086	-31.71
696.272	13.76
696.458	16.62
696.644	2.29
696.83	28.91
697.016	21.95
697.202	45.29
697.387	-29.25
697.573	35.46
697.759	94.86
697.945	15.8
698.131	8.43
698.317	28.5
698.503	42.43
698.689	-18.6
698.874	40.79
699.06	-47.68
699.246	-7.13
699.432	29.73
699.617	10.48
699.803	35.46
699.989	27.68
700.174	5.15
700.36	106.32
700.546	180.46
700.731	257.05
700.917	365.19
701.103	705.15
701.288	1895.43
701.474	3434.27
701.659	3720.58
701.845	3616.54
702.03	3151.65
702.216	2385.71
702.401	1428.08
702.587	752.66
702.772	458.98
702.958	242.72
703.143	282.86
703.328	135.4
703.514	145.64
703.699	88.71
703.884	49.39
704.07	70.28
704.255	142.37
704.44	120.25
704.626	76.83
704.811	77.65
704.996	56.76
705.181	54.71
705.366	49.39
705.552	72.74
705.737	63.32
705.922	39.56
706.107	88.71
706.292	15.39
706.477	71.1
706.662	37.51
706.847	-8.77
707.032	4.33
707.217	74.38
707.402	45.29
707.587	50.62
707.772	-34.17
707.957	12.53
708.142	49.39
708.327	19.49
708.512	-47.68
708.697	59.22
708.882	-25.98
709.067	-15.74
709.252	-6.31
709.436	9.66
709.621	6.38
709.806	53.08
709.991	-25.16
710.175	-18.19
710.36	13.76
710.545	10.48
710.73	17.85
710.914	65.36
711.099	-43.59
711.284	32.19
711.468	-42.36
711.653	64.55
711.837	10.48
712.022	51.03
712.206	-58.33
712.391	46.52
712.576	7.2
712.76	41.2
712.944	83.39
713.129	42.02
713.313	42.02
713.498	37.51
713.682	-12.87
713.867	59.63
714.051	3.93
714.235	30.55
714.42	21.54
714.604	-61.61
714.788	34.64
714.973	-23.52
715.157	-10.41
715.341	107.14
715.525	370.1
715.71	452.43
715.894	450.38
716.078	490.93
716.262	373.79
716.446	232.07
716.63	149.74
716.815	81.75
716.999	57.58
717.183	73.56
717.367	69.87
717.551	69.05
717.735	10.89
717.919	-28.84
718.103	32.19
718.287	11.71
718.471	-18.19
718.655	36.28
718.839	36.28
719.023	35.46
719.207	35.05
719.39	67
719.574	78.47
719.758	0.24
719.942	37.1
720.126	55.53
720.31	-57.1
720.493	12.12
720.677	-30.48
720.861	62.91
721.044	-9.59
721.228	-36.62
721.412	-40.31
721.596	45.29
721.779	26.86
721.963	9.66
722.146	-7.95
722.33	183.74
722.514	599.06
722.697	1295.37
722.881	1801.63
723.064	1870.85
723.248	1714.39
723.431	1310.53
723.615	748.57
723.798	429.9
723.982	211.18
724.165	177.18
724.348	90.35
724.532	151.38
724.715	74.78
724.898	35.87
725.082	11.3
725.265	15.39
725.448	2.7
725.632	14.17
725.815	69.46
725.998	55.94
726.181	-55.47
726.365	14.57
726.548	25.22
726.731	40.38
726.914	-18.6
727.097	30.14
727.28	-10.82
727.463	39.97
727.647	9.25
727.83	15.8
728.013	3.52
728.196	24.4
728.379	11.3
728.562	19.9
728.745	-11.23
728.928	10.48
729.111	-22.7
729.294	26.86
729.476	-23.11
729.659	38.33
729.842	26.45
730.025	-32.53
730.208	55.12
730.391	25.63
730.574	-1.81
730.756	42.84
730.939	45.7
731.122	113.29
731.305	21.13
731.487	-10
731.67	5.56
731.853	-0.17
732.035	0.65
732.218	0.65
732.401	48.98
732.583	17.44
732.766	-28.02
732.948	10.89
733.131	-5.5
733.313	65.36
733.496	64.95
733.678	-44.41
733.861	-36.21
734.043	5.56
734.226	-37.03
734.408	19.08
734.591	4.74
734.773	21.54
734.956	-55.06
735.138	-38.67
735.32	-5.9
735.503	17.44
735.685	-5.09
735.867	32.19
736.049	37.92
736.232	37.1
736.414	-53.01
736.596	-28.84
736.778	10.07
736.961	-0.99
737.143	-48.91
737.325	-26.79
737.507	49.39
737.689	46.52
737.871	-1.4
738.053	52.26
738.235	-71.03
738.417	57.17
738.599	5.97
738.781	20.31
738.963	-43.59
739.145	64.95
739.327	37.51
739.509	-23.93
739.691	-31.71
739.873	28.5
740.055	-2.22
740.237	35.05
740.419	37.1
740.601	62.09
740.782	-21.06
740.964	7.2
741.146	34.24
741.328	117.38
741.509	-42.77
741.691	-97.65
741.873	147.69
742.055	371.74
742.236	456.94
742.418	463.49
742.6	424.99
742.781	325.05
742.963	230.43
743.144	155.07
743.326	149.33
743.508	122.3
743.689	-12.87
743.871	47.75
744.052	-29.66
744.234	94.86
744.415	-41.95
744.596	33.42
744.778	-8.36
744.959	3.11
745.141	-33.35
745.322	69.87
745.503	-34.99
745.685	50.21
745.866	-42.36
746.047	-14.51
746.229	-7.13
746.41	28.5
746.591	22.36
746.772	28.91
746.954	-11.64
747.135	79.29
747.316	63.73
747.497	105.91
747.678	56.76
747.859	67.41
748.041	29.32
748.222	85.02
748.403	94.86
748.584	47.75
748.765	28.09
748.946	42.02
749.127	28.5
749.308	89.12
749.489	15.39
749.67	20.72
749.851	66.59
750.032	-84.14
750.212	11.71
750.393	21.13
750.574	-12.87
750.755	64.14
750.936	0.24
751.117	-31.3
751.297	-10
751.478	87.48
751.659	12.12
751.84	60.45
752.02	70.28
752.201	35.05
752.382	49.8
752.562	17.03
752.743	58.81
752.924	67
753.104	50.62
753.285	12.12
753.466	32.6
753.646	-4.27
753.827	-3.45
754.007	9.66
754.188	114.93
754.368	30.96
754.549	47.75
754.729	-15.33
754.909	39.97
755.09	39.15
755.27	-10.82
755.451	36.69
755.631	46.11
755.811	22.36
755.992	25.63
756.172	-10.41
756.352	39.56
756.533	60.86
756.713	-21.88
756.893	31.37
757.073	17.44
757.253	64.14
757.434	20.72
757.614	-83.32
757.794	32.19
757.974	1.88
758.154	54.71
758.334	54.31
758.514	-33.76
758.694	4.33
758.875	-4.68
759.055	49.8
759.235	23.59
759.415	-15.33
759.594	-4.27
759.774	7.2
759.954	6.38
760.134	-24.34
760.314	45.29
760.494	39.56
760.674	39.56
760.854	-12.05
761.034	28.91
761.213	21.54
761.393	-2.22
761.573	-16.14
761.753	-1.4
761.932	-8.77
762.112	69.46
762.292	17.44
762.472	-3.45
762.651	21.13
762.831	27.27
763.01	-20.24
763.19	14.57
763.37	12.53
763.549	33.01
763.729	46.93
763.908	-59.97
764.088	-7.54
764.267	-33.76
764.447	40.79
764.626	-21.88
764.806	45.29
764.985	8.43
765.165	-12.05
765.344	-26.79
765.523	46.93
765.703	35.46
765.882	37.1
766.061	-72.26
766.241	7.61
766.42	3.93
766.599	40.38
766.779	8.43
766.958	-19.01
767.137	-44
767.316	28.09
767.495	75.6
767.675	-19.01
767.854	-6.72
768.033	101.41
768.212	77.65
768.391	-20.24
768.57	84.21
768.749	56.35
768.928	-86.19
769.107	5.15
769.286	0.24
769.465	-6.31
769.644	27.27
769.823	52.67
770.002	26.04
770.181	-9.59
770.36	15.39
770.539	-46.86
770.718	45.29
770.896	10.07
771.075	-25.98
771.254	58.4
771.433	46.52
771.612	-16.55
771.79	-14.1
771.969	13.76
772.148	39.56
772.326	-39.49
772.505	14.17
772.684	19.08
772.862	-5.9
773.041	-0.17
773.22	-34.58
773.398	-1.81
773.577	-16.96
773.755	52.67
773.934	12.94
774.112	-37.44
774.291	10.48
774.469	44.48
774.648	36.28
774.826	-5.09
775.005	-42.77
775.183	45.29
775.362	44.88
775.54	116.97
775.718	108.78
775.897	66.59
776.075	-46.05
776.253	44.48
776.432	44.07
776.61	65.77
776.788	-11.23
776.966	-0.99
777.144	-40.31
777.323	0.24
777.501	-4.27
777.679	26.86
777.857	25.63
778.035	6.79
778.213	2.29
778.391	-33.76
778.57	-34.99
778.748	51.03
778.926	26.04
779.104	24
779.282	40.38
779.46	22.36
779.638	35.05
779.815	65.36
779.993	7.61
780.171	-11.64
780.349	-1.81
780.527	-4.27
780.705	22.36
780.883	50.21
781.061	121.07
781.238	-67.75
781.416	16.62
781.594	57.58
781.772	-68.57
781.949	-27.2
782.127	17.44
782.305	57.17
782.482	-48.09
782.66	-60.79
782.838	-66.12
783.015	42.84
783.193	-11.23
783.37	5.56
783.548	43.25
783.726	-14.1
783.903	0.24
784.081	10.07
784.258	64.95
784.436	30.96
784.613	-8.36
784.79	49.8
784.968	95.26
785.145	-7.95
785.323	-36.62
785.5	-14.1
785.677	-41.54
785.855	-83.73
786.032	66.59
786.209	-19.83
786.386	27.68
786.564	-15.74
786.741	1.47
786.918	45.29
787.095	-34.58
787.273	12.94
787.45	-3.45
787.627	36.69
787.804	-20.65
787.981	45.7
788.158	24.4
788.335	-68.98
788.512	16.21
788.689	38.33
788.866	-9.18
789.043	64.55
789.22	-8.36
789.397	-0.99
789.574	22.36
789.751	67.82
789.928	35.05
790.105	29.32
790.282	30.55
790.459	-12.46
790.635	51.03
790.812	-29.66
790.989	-16.14
791.166	10.07
791.343	32.6
791.519	19.08
791.696	78.88
791.873	-13.69
792.049	43.66
792.226	-6.31
792.403	40.38
792.579	52.67
792.756	46.11
792.933	20.72
793.109	-24.34
793.286	-3.04
793.462	27.68
793.639	8.43
793.815	-7.13
793.992	36.69
794.168	-19.01
794.345	1.88
794.521	71.1
794.698	-56.69
794.874	16.21
795.05	19.08
795.227	-25.98
795.403	19.08
795.579	76.42
795.756	36.69
795.932	24
796.108	22.36
796.285	71.51
796.461	69.87
796.637	8.43
796.813	5.97
796.989	-20.24
797.166	9.25
797.342	5.56
797.518	13.35
797.694	-44.82
797.87	65.77
798.046	-28.84
798.222	89.53
798.398	-43.18
798.574	33.01
798.75	-13.28
798.926	-23.11
799.102	-27.2
799.278	21.95
799.454	49.39
799.63	-12.46
799.806	23.18
799.982	27.27
800.157	-15.74
800.333	47.75
800.509	-30.07
800.685	30.55
800.861	73.15
801.036	50.21
801.212	18.67
801.388	63.32
801.564	-25.98
801.739	75.19
801.915	19.49
802.091	-12.87
802.266	34.64
802.442	-36.21
802.617	9.66
802.793	100.59
802.969	48.16
803.144	-13.69
803.32	-16.55
803.495	52.67
803.671	47.34
803.846	-21.88
804.022	-25.16
804.197	15.8
804.372	35.46
804.548	-23.11
804.723	-7.95
804.898	-19.42
805.074	-43.59
805.249	16.62
805.424	48.57
805.6	-43.18
805.775	67.82
805.95	22.36
806.125	-11.64
806.301	-0.58
806.476	3.11
806.651	-28.02
806.826	15.8
807.001	54.71
807.176	42.02
807.352	-15.74
807.527	53.08
807.702	59.63
807.877	-18.6
808.052	-12.46
808.227	20.72
808.402	-2.63
808.577	6.79
808.752	7.61
808.927	27.27
809.102	39.56
809.276	-46.45
809.451	63.73
809.626	26.86
809.801	-14.51
809.976	27.68
810.151	-14.92
810.325	39.15
810.5	-24.34
810.675	72.33
810.85	34.64
811.024	-1.81
811.199	-19.83
811.374	35.46
811.548	-6.72
811.723	-37.03
811.898	-5.5
812.072	35.05
812.247	71.92
812.421	26.86
812.596	25.63
812.77	46.52
812.945	38.74
813.119	82.16
813.294	54.71
813.468	39.15
813.643	60.04
813.817	12.53
813.992	-17.78
814.166	-23.11
814.34	-17.37
814.515	-16.55
814.689	-47.68
814.863	-59.97
815.038	-22.29
815.212	-44
815.386	11.71
815.56	-21.06
815.735	-21.88
815.909	38.74
816.083	40.38
816.257	82.57
816.431	-9.18
816.605	48.57
816.78	18.67
816.954	-6.31
817.128	3.52
817.302	32.6
817.476	-8.77
817.65	25.22
817.824	35.05
817.998	-19.01
818.172	-0.99
818.346	-26.38
818.52	28.09
818.694	4.33
818.867	96.08
819.041	17.85
819.215	-46.05
819.389	-0.99
819.563	27.27
819.737	-1.4
819.91	-9.59
820.084	29.32
820.258	12.12
820.432	-19.42
820.605	11.71
820.779	-7.54
820.953	-39.9
821.126	24
821.3	12.53
821.473	-38.67
821.647	34.64
821.821	-3.45
821.994	49.39
822.168	13.35
822.341	41.61
822.515	-15.74
822.688	11.3
822.862	-14.92
823.035	-8.36
823.208	-31.3
823.382	53.08
823.555	69.46
823.729	35.05
823.902	44.88
824.075	76.01
824.249	8.43
824.422	11.3
824.595	19.9
824.768	32.19
824.942	13.35
825.115	76.83
825.288	-32.12
825.461	24.81
825.634	-4.27
825.808	12.94
825.981	-58.74
826.154	68.23
826.327	37.51
826.5	-3.45
826.673	-16.14
826.846	20.72
827.019	-25.16
827.192	-31.71
827.365	45.29
827.538	88.71
827.711	-32.53
827.884	-19.42
828.057	84.21
828.23	33.01
828.403	25.22
828.575	6.79
828.748	-50.14
828.921	-2.63
829.094	-17.37
829.267	39.56
829.439	11.71
829.612	56.76
829.785	-49.73
829.957	15.39
830.13	-6.31
830.303	-57.51
830.475	-8.77
830.648	-20.65
830.821	36.69
830.993	-23.52
831.166	33.01
831.338	46.11
831.511	-23.52
831.683	-11.23
831.856	-5.9
832.028	24
832.201	57.17
832.373	-51.78
832.546	7.2
832.718	-33.35
832.891	19.49
833.063	15.39
833.235	47.34
833.408	22.77
833.58	-12.87
833.752	26.86
833.924	45.29
834.097	64.55
834.269	67
834.441	-30.48
834.613	24
834.785	-19.42
834.958	25.22
835.13	63.73
835.302	22.36
835.474	8.43
835.646	-13.28
835.818	-5.5
835.99	-27.2
836.162	32.19
836.334	23.59
836.506	80.11
836.678	90.35
836.85	55.12
837.022	-19.83
837.194	31.37
837.366	-23.11
837.538	-13.69
837.71	41.61
837.882	40.79
838.053	94.45
838.225	-43.59
838.397	71.1
838.569	5.56
838.74	-19.42
838.912	112.88
839.084	4.33
839.256	41.61
839.427	2.7
839.599	30.55
839.771	6.38
839.942	-14.1
840.114	-5.9
840.285	-24.34
840.457	63.32
840.628	11.3
840.8	9.25
840.971	64.95
841.143	-0.17
841.314	-14.1
841.486	114.52
841.657	38.74
841.829	38.74
842	1.06
842.171	-30.89
842.343	59.63
842.514	3.93
842.686	-46.45
842.857	-0.17
843.028	39.97
843.199	-10.82
843.371	39.56
843.542	-31.71
843.713	69.46
843.884	-27.2
844.055	-36.21
844.227	4.74
844.398	1.06
844.569	6.79
844.74	24.81
844.911	-11.23
845.082	34.24
845.253	-32.12
845.424	-10
845.595	10.48
845.766	21.95
845.937	-1.4
846.108	-32.12
846.279	21.95
846.45	55.12
846.621	4.33
846.792	60.04
846.962	54.71
847.133	38.33
847.304	37.51
847.475	10.89
847.646	44.07
847.816	65.36
847.987	34.64
848.158	2.29
848.329	-13.28
848.499	94.04
848.67	68.23
848.841	5.56
849.011	21.95
849.182	20.31
849.352	15.8
849.523	14.98
849.693	10.48
849.864	23.18
850.034	24.81
850.205	62.5
850.375	-59.97
850.546	-28.02
850.716	-5.9
850.887	12.12
851.057	-31.3
851.228	-24.75
851.398	-64.48
851.568	1.88
851.739	-30.89
851.909	69.87
852.079	-56.29
852.249	15.39
852.42	53.9
852.59	1.06
852.76	71.51
852.93	80.11
853.1	-19.83
853.271	79.29
853.441	75.6
853.611	-7.95
853.781	-62.02
853.951	76.01
854.121	-21.47
854.291	53.9
854.461	4.74
854.631	81.34
854.801	-62.02
854.971	10.89
855.141	4.74
855.311	3.11
855.481	73.56
855.651	-19.42
855.821	-25.16
855.991	44.07
856.16	-31.3
856.33	31.37
856.5	125.98
856.67	42.84
856.84	-45.23
857.009	32.6
857.179	29.32
857.349	-10.82
857.518	-1.81
857.688	41.61
857.858	11.3
858.027	68.64
858.197	21.54
858.367	28.5
858.536	9.66
858.706	1.47
858.875	19.49
859.045	47.34
859.214	7.2
859.384	44.88
859.553	-27.2
859.723	38.74
859.892	-5.9
860.061	30.55
860.231	3.52
860.4	44.88
860.569	-69.8
860.739	1.06
860.908	17.85
861.077	-47.27
861.247	40.38
861.416	45.29
861.585	-29.25
861.754	34.64
861.924	53.08
862.093	-31.71
862.262	28.91
862.431	7.2
862.6	15.8
862.769	23.18
862.938	-52.19
863.107	82.98
863.276	60.04
863.445	8.84
863.614	-34.17
863.783	24.4
863.952	-29.25
864.121	51.85
864.29	9.66
864.459	-16.96
864.628	89.53
864.797	13.76
864.966	0.24
865.135	-38.67
865.303	-13.69
865.472	19.08
865.641	23.59
865.81	34.64
865.979	-62.84
866.147	42.02
866.316	18.26
866.485	49.39
866.653	69.46
866.822	-1.4
866.991	-3.86
867.159	11.3
867.328	-10.41
867.496	13.76
867.665	1.47
867.833	61.68
868.002	-21.06
868.17	92.81
868.339	-34.99
868.507	-18.6
868.676	74.78
868.844	23.59
869.013	-52.6
869.181	10.89
869.349	20.72
869.518	14.98
869.686	11.71
869.854	18.67
870.023	25.63
870.191	42.02
870.359	-24.75
870.527	9.25
870.695	6.79
870.864	71.51
871.032	63.32
871.2	-44.41
871.368	9.25
871.536	64.95
871.704	-28.84
871.872	6.38
872.04	32.19
872.209	-5.5
872.377	-40.72
872.545	21.95
872.712	3.11
872.88	38.74
873.048	10.48
873.216	20.31
873.384	14.17
873.552	42.43
873.72	-41.54
873.888	59.22
874.056	28.09
874.223	-1.4
874.391	-16.96
874.559	16.21
874.727	49.39
874.894	21.95
875.062	30.55
875.23	33.01
875.398	69.87
875.565	19.49
875.733	-48.09
875.9	-10.82
876.068	44.88
876.236	70.28
876.403	92.4
876.571	-37.44
876.738	30.55
876.906	41.2
877.073	-45.64
877.241	15.8
877.408	63.73
877.576	-8.77
877.743	4.74
877.91	-8.77
878.078	22.36
878.245	-34.58
878.412	-1.4
878.58	30.96
878.747	38.33
878.914	19.08
879.082	9.66
879.249	-27.2
879.416	35.46
879.583	-6.72
879.75	34.64
879.918	13.76
880.085	-5.5
880.252	44.88
880.419	2.29
880.586	-10
880.753	64.14
880.92	22.36
881.087	20.31
881.254	18.26
881.421	-0.17
881.588	-32.12
881.755	-41.54
881.922	-31.71
882.089	55.12
882.256	-18.19
882.423	7.61
882.589	3.52
882.756	29.73
882.923	-11.23
883.09	-24.34
883.257	-12.05
883.423	8.02
883.59	-23.11
883.757	32.6
883.924	53.9
884.09	70.69
884.257	-19.01
884.424	44.88
884.59	61.27
884.757	-21.06
884.923	65.77
885.09	-15.74
885.257	-12.05
885.423	22.36
885.59	-35.4
885.756	-5.9
885.923	-16.55
886.089	2.7
886.255	36.28
886.422	-19.83
886.588	-22.7
886.755	18.26
886.921	57.58
887.087	-9.18
887.254	-7.54
887.42	17.03
887.586	-24.34
887.752	-19.01
887.919	-18.6
888.085	-20.24
888.251	-10
888.417	-19.01
888.583	42.43
888.75	-9.59
888.916	28.91
889.082	-26.79
889.248	40.38
889.414	65.36
889.58	-28.84
889.746	-28.84
889.912	-28.84
