Data from FLMT000111__2__14-24-54-556.txt Node

Date: Thu Oct 26 14:24:54 EDT 2023
User: Student
Spectrometer: FLMT00011
Trigger mode: 0
Integration Time (sec): 1.000000E-1
Scans to average: 5
Electric dark correction enabled: true
Nonlinearity correction enabled: false
Boxcar width: 0
XAxis mode: Wavelengths
Number of Pixels in Spectrum: 3648
>>>>>Begin Spectral Data<<<<<
171.25	-271.59
171.475	-271.59
171.699	-271.59
171.923	-206.47
172.147	49.94
172.371	142.91
172.595	6.11
172.819	20.86
173.043	-41.4
173.267	-30.75
173.491	3.65
173.715	16.35
173.939	-22.97
174.163	-16.01
174.387	-36.49
174.611	-20.51
174.835	-21.74
175.059	-25.43
175.283	13.07
175.507	4.88
175.73	33.14
175.954	17.99
176.178	-34.44
176.402	-20.92
176.626	-20.1
176.85	-80.31
177.073	-52.05
177.297	-1.26
177.521	-23.79
177.745	-31.98
177.969	23.31
178.192	29.05
178.416	30.69
178.64	-32.8
178.863	27
179.087	-12.73
179.311	44.2
179.534	-3.72
179.758	-44.68
179.982	108.1
180.205	-1.26
180.429	25.36
180.653	-6.59
180.876	13.48
181.1	-41.4
181.323	-22.56
181.547	12.25
181.77	63.45
181.994	17.58
182.217	-15.19
182.441	43.79
182.664	23.72
182.888	67.55
183.111	13.89
183.335	-28.71
183.558	38.47
183.782	62.22
184.005	75.74
184.228	10.21
184.452	42.56
184.675	-76.63
184.899	32.32
185.122	15.94
185.345	-11.5
185.569	-27.48
185.792	20.86
186.015	-45.09
186.238	-17.24
186.462	66.32
186.685	145.37
186.908	4.47
187.131	73.69
187.355	-2.08
187.578	7.34
187.801	19.22
188.024	-13.14
188.247	45.43
188.471	-31.16
188.694	70.83
188.917	12.25
189.14	0.79
189.363	38.88
189.586	-25.02
189.809	85.57
190.032	21.26
190.255	10.62
190.478	-13.55
190.701	-20.1
190.924	24.95
191.147	-25.43
191.37	-27.07
191.593	85.98
191.816	4.06
192.039	60.18
192.262	40.52
192.485	25.36
192.708	41.74
192.931	9.8
193.154	48.3
193.377	-36.08
193.6	47.48
193.822	-12.32
194.045	-26.66
194.268	4.47
194.491	45.02
194.714	34.37
194.936	15.53
195.159	25.36
195.382	37.24
195.605	11.43
195.827	13.89
196.05	46.66
196.273	-26.25
196.495	32.73
196.718	44.61
196.941	-13.96
197.163	17.99
197.386	42.97
197.609	-51.64
197.831	-57.38
198.054	86.39
198.277	52.8
198.499	-50.41
198.722	1.19
198.944	16.35
199.167	-4.95
199.389	-25.02
199.612	-13.14
199.834	135.13
200.057	38.88
200.279	-4.95
200.502	-41.4
200.724	-45.5
200.947	-14.78
201.169	-32.39
201.391	-30.75
201.614	79.43
201.836	65.91
202.059	24.95
202.281	38.88
202.503	21.67
202.726	-31.57
202.948	1.19
203.17	-29.52
203.393	21.26
203.615	23.31
203.837	3.24
204.059	31.91
204.282	6.11
204.504	-1.26
204.726	-9.45
204.948	-47.14
205.17	44.61
205.393	-0.03
205.615	-16.83
205.837	39.7
206.059	23.31
206.281	41.33
206.503	33.96
206.725	-41.4
206.947	-65.98
207.17	34.37
207.392	-21.74
207.614	-32.39
207.836	-15.19
208.058	13.07
208.28	-11.5
208.502	37.24
208.724	34.78
208.946	110.97
209.168	51.98
209.39	65.5
209.611	35.19
209.833	23.31
210.055	47.89
210.277	29.46
210.499	49.53
210.721	39.7
210.943	-24.61
211.165	31.5
211.386	37.24
211.608	53.62
211.83	-51.23
212.052	-29.52
212.274	46.25
212.495	-26.66
212.717	-17.24
212.939	-36.08
213.161	-1.67
213.382	1.19
213.604	15.53
213.826	10.62
214.047	82.29
214.269	40.93
214.491	32.73
214.712	59.36
214.934	35.19
215.155	32.32
215.377	70.01
215.599	88.03
215.82	16.76
216.042	24.95
216.263	23.31
216.485	4.88
216.706	22.49
216.928	-32.8
217.149	37.24
217.371	9.39
217.592	-7.82
217.814	-36.9
218.035	46.66
218.257	6.52
218.478	13.48
218.699	51.98
218.921	17.58
219.142	47.89
219.363	21.67
219.585	36.42
219.806	-11.09
220.027	-27.89
220.249	32.32
220.47	76.15
220.691	-8.64
220.913	27.41
221.134	40.52
221.355	20.45
221.576	38.06
221.798	-23.79
222.019	-2.49
222.24	34.78
222.461	27.82
222.682	83.52
222.903	26.18
223.125	60.59
223.346	15.53
223.567	-42.63
223.788	-41.81
224.009	-35.67
224.23	113.42
224.451	68.37
224.672	-7
224.893	17.17
225.114	-3.72
225.335	-39.36
225.556	34.37
225.777	21.67
225.998	33.55
226.219	4.88
226.44	31.5
226.661	38.47
226.882	24.95
227.103	1.19
227.324	-21.74
227.544	62.63
227.765	-2.49
227.986	-1.26
228.207	2.83
228.428	10.21
228.649	28.23
228.869	-5.77
229.09	40.93
229.311	47.48
229.532	-22.56
229.752	19.63
229.973	-12.73
230.194	47.48
230.415	-17.65
230.635	56.9
230.856	33.96
231.077	63.45
231.297	38.06
231.518	42.15
231.739	-28.71
231.959	42.15
232.18	0.79
232.4	62.63
232.621	13.89
232.841	2.01
233.062	-61.06
233.283	-20.51
233.503	39.7
233.724	15.53
233.944	18.81
234.165	0.79
234.385	-10.68
234.605	83.11
234.826	-20.51
235.046	8.16
235.267	-14.78
235.487	20.86
235.708	67.96
235.928	-5.36
236.148	51.17
236.369	59.36
236.589	1.6
236.809	-7
237.03	37.65
237.25	16.35
237.47	40.93
237.69	6.52
237.911	0.38
238.131	51.17
238.351	55.26
238.571	67.96
238.792	-4.54
239.012	15.53
239.232	-39.76
239.452	41.74
239.672	54.44
239.892	-18.47
240.112	15.53
240.333	-14.78
240.553	4.47
240.773	69.6
240.993	8.57
241.213	-4.13
241.433	-13.14
241.653	5.29
241.873	-11.5
242.093	-22.56
242.313	10.62
242.533	61
242.753	52.39
242.973	72.87
243.193	6.52
243.413	-25.43
243.633	27.41
243.853	24.54
244.072	48.3
244.292	39.29
244.512	-59.83
244.732	56.9
244.952	7.75
245.172	67.96
245.391	16.76
245.611	-1.26
245.831	-19.69
246.051	24.54
246.271	61.81
246.49	-27.48
246.71	35.6
246.93	34.37
247.149	-7.41
247.369	-12.32
247.589	52.39
247.808	29.87
248.028	-15.6
248.248	24.95
248.467	19.63
248.687	45.43
248.906	-32.39
249.126	10.62
249.346	15.12
249.565	-18.06
249.785	22.08
250.004	27.41
250.224	12.66
250.443	31.5
250.663	39.7
250.882	94.99
251.102	-7.82
251.321	55.67
251.541	31.91
251.76	14.71
251.979	36.01
252.199	45.02
252.418	-25.02
252.638	23.72
252.857	44.61
253.076	18.81
253.296	34.37
253.515	8.16
253.734	23.31
253.953	30.69
254.173	2.83
254.392	-3.31
254.611	42.97
254.83	20.04
255.05	20.45
255.269	12.25
255.488	35.6
255.707	50.76
255.926	25.77
256.146	14.71
256.365	107.69
256.584	-43.45
256.803	-13.55
257.022	33.14
257.241	12.25
257.46	-11.09
257.679	7.34
257.898	11.43
258.117	-7
258.336	80.25
258.555	27
258.774	-34.44
258.993	60.59
259.212	12.25
259.431	-41.4
259.65	21.67
259.869	30.69
260.088	49.12
260.307	37.24
260.526	-35.67
260.745	21.26
260.964	83.52
261.182	4.88
261.401	-10.68
261.62	56.49
261.839	49.53
262.058	26.59
262.276	-38.95
262.495	69.6
262.714	70.01
262.933	-8.64
263.151	18.4
263.37	44.61
263.589	98.27
263.807	-10.27
264.026	15.12
264.245	11.43
264.463	3.24
264.682	-17.24
264.901	-0.03
265.119	-11.09
265.338	50.35
265.556	2.83
265.775	60.59
265.994	36.83
266.212	18.4
266.431	-2.9
266.649	42.56
266.868	25.36
267.086	-27.89
267.305	-13.96
267.523	15.12
267.742	21.67
267.96	9.8
268.178	65.91
268.397	22.08
268.615	10.21
268.834	73.28
269.052	-38.13
269.27	39.29
269.489	-82.77
269.707	29.05
269.925	-0.03
270.143	28.64
270.362	-5.77
270.58	90.08
270.798	-7.41
271.017	59.36
271.235	31.91
271.453	76.56
271.671	38.47
271.889	-3.31
272.108	23.31
272.326	-12.32
272.544	-3.31
272.762	109.33
272.98	40.52
273.198	-13.14
273.416	-58.2
273.634	48.71
273.852	43.38
274.07	46.66
274.289	-21.33
274.507	-10.27
274.725	52.8
274.943	90.49
275.161	84.34
275.379	36.42
275.596	2.01
275.814	-44.27
276.032	1.19
276.25	27
276.468	33.55
276.686	-2.08
276.904	-32.39
277.122	-54.51
277.34	76.56
277.557	46.25
277.775	-36.08
277.993	11.02
278.211	120.39
278.429	64.27
278.646	20.86
278.864	49.53
279.082	41.74
279.3	22.08
279.517	43.38
279.735	-0.03
279.953	33.55
280.17	-16.83
280.388	20.04
280.606	-25.02
280.823	59.36
281.041	88.44
281.259	-68.44
281.476	20.86
281.694	-1.67
281.911	29.46
282.129	92.12
282.346	-18.47
282.564	-7.41
282.781	20.04
282.999	14.71
283.216	25.36
283.434	16.76
283.651	63.04
283.869	-30.34
284.086	-4.95
284.304	44.2
284.521	6.93
284.738	-49.59
284.956	40.11
285.173	-9.86
285.391	-16.42
285.608	39.7
285.825	58.95
286.043	12.66
286.26	10.21
286.477	5.29
286.694	45.84
286.912	33.14
287.129	92.53
287.346	17.58
287.563	-11.09
287.78	-4.13
287.998	-12.73
288.215	-8.64
288.432	7.75
288.649	25.77
288.866	45.84
289.083	11.84
289.3	69.6
289.518	85.98
289.735	-22.56
289.952	16.35
290.169	79.43
290.386	-1.67
290.603	-30.75
290.82	74.51
291.037	-34.85
291.254	47.48
291.471	50.76
291.688	6.11
291.905	12.25
292.122	-15.6
292.339	-24.2
292.555	12.66
292.772	19.22
292.989	-12.73
293.206	23.72
293.423	-17.65
293.64	29.46
293.857	79.84
294.073	92.53
294.29	153.56
294.507	0.38
294.724	3.65
294.94	-11.91
295.157	-15.6
295.374	10.62
295.591	8.57
295.807	61.4
296.024	41.74
296.241	27.41
296.457	91.31
296.674	-27.48
296.891	51.98
297.107	11.02
297.324	-8.23
297.54	58.95
297.757	-38.95
297.973	45.02
298.19	62.63
298.407	7.34
298.623	-17.24
298.84	40.11
299.056	1.6
299.272	24.95
299.489	-18.88
299.705	12.66
299.922	32.73
300.138	73.69
300.355	14.3
300.571	101.14
300.787	25.77
301.004	65.91
301.22	30.28
301.436	12.25
301.653	8.57
301.869	0.38
302.085	32.73
302.302	27.82
302.518	91.31
302.734	12.66
302.95	-45.91
303.167	17.99
303.383	53.62
303.599	37.65
303.815	20.86
304.031	45.84
304.248	19.22
304.464	53.21
304.68	25.36
304.896	53.62
305.112	46.25
305.328	36.83
305.544	-0.03
305.76	11.84
305.976	40.11
306.192	-18.06
306.408	15.94
306.624	-45.91
306.84	53.62
307.056	-6.59
307.272	80.66
307.488	56.49
307.704	-0.44
307.92	7.34
308.136	45.43
308.352	128.17
308.568	1.6
308.784	-35.26
309	29.46
309.215	8.98
309.431	23.31
309.647	22.49
309.863	43.38
310.079	0.38
310.294	22.9
310.51	-24.2
310.726	-34.85
310.942	96.22
311.157	29.05
311.373	107.69
311.589	-65.57
311.804	2.42
312.02	40.93
312.236	-18.06
312.451	38.47
312.667	99.91
312.883	5.7
313.098	26.59
313.314	1.19
313.529	13.89
313.745	56.49
313.961	82.29
314.176	64.68
314.392	53.21
314.607	-10.27
314.823	76.56
315.038	-42.63
315.253	6.52
315.469	-29.12
315.684	4.06
315.9	-15.19
316.115	23.31
316.331	101.55
316.546	47.48
316.761	-19.69
316.977	78.2
317.192	70.83
317.407	49.53
317.623	-70.07
317.838	34.37
318.053	11.43
318.268	42.97
318.484	-18.88
318.699	11.84
318.914	42.15
319.129	15.12
319.344	37.24
319.56	92.53
319.775	28.23
319.99	58.95
320.205	4.47
320.42	86.39
320.635	-16.42
320.85	102.77
321.066	27.41
321.281	27.82
321.496	86.8
321.711	45.02
321.926	-4.13
322.141	-1.67
322.356	-2.9
322.571	36.83
322.786	6.52
323.001	34.78
323.216	74.1
323.43	68.78
323.645	11.02
323.86	54.85
324.075	5.29
324.29	20.45
324.505	73.28
324.72	-53.28
324.935	50.76
325.149	38.88
325.364	12.66
325.579	5.29
325.794	-37.31
326.009	74.92
326.223	3.24
326.438	-20.51
326.653	65.09
326.867	71.64
327.082	40.93
327.297	24.95
327.511	42.97
327.726	-4.54
327.941	13.07
328.155	-15.19
328.37	-5.36
328.585	14.71
328.799	1.6
329.014	30.28
329.228	-5.77
329.443	-63.11
329.657	-1.26
329.872	27.41
330.086	5.7
330.301	63.04
330.515	73.28
330.73	29.87
330.944	39.29
331.159	8.16
331.373	9.39
331.587	-7.41
331.802	-7.82
332.016	33.14
332.231	16.76
332.445	81.88
332.659	63.04
332.874	26.59
333.088	46.25
333.302	15.94
333.516	41.74
333.731	55.67
333.945	30.69
334.159	1.19
334.373	17.99
334.588	14.71
334.802	38.06
335.016	72.05
335.23	8.57
335.444	6.52
335.658	-23.38
335.872	38.47
336.087	59.36
336.301	102.77
336.515	-25.43
336.729	68.37
336.943	25.36
337.157	94.99
337.371	-11.5
337.585	31.5
337.799	44.2
338.013	28.64
338.227	-17.24
338.441	63.04
338.655	26.59
338.869	60.59
339.083	48.71
339.296	-16.42
339.51	1.19
339.724	58.54
339.938	20.45
340.152	-14.78
340.366	36.83
340.58	61.4
340.793	-12.32
341.007	-11.09
341.221	4.47
341.435	79.84
341.648	40.93
341.862	15.94
342.076	4.88
342.29	53.21
342.503	21.67
342.717	1.19
342.931	3.24
343.144	-13.55
343.358	-16.42
343.571	50.35
343.785	18.81
343.999	95.81
344.212	74.51
344.426	41.33
344.639	2.83
344.853	69.6
345.066	-13.14
345.28	15.94
345.493	26.59
345.707	-2.49
345.92	-2.49
346.134	36.83
346.347	5.7
346.561	27.41
346.774	42.56
346.987	38.06
347.201	24.95
347.414	-45.09
347.627	-7.82
347.841	24.13
348.054	1.6
348.267	85.98
348.481	67.14
348.694	29.87
348.907	3.24
349.12	40.11
349.334	-11.5
349.547	-32.39
349.76	63.86
349.973	-17.65
350.186	-7.41
350.4	18.4
350.613	40.93
350.826	12.25
351.039	42.97
351.252	54.03
351.465	-22.56
351.678	8.98
351.891	15.12
352.104	4.47
352.317	13.48
352.53	-12.73
352.743	-26.66
352.956	-4.13
353.169	-0.85
353.382	84.34
353.595	-43.04
353.808	-29.93
354.021	31.91
354.234	67.14
354.447	-25.02
354.66	58.95
354.873	22.9
355.086	119.57
355.298	26.18
355.511	30.69
355.724	-17.65
355.937	125.71
356.15	90.08
356.362	26.18
356.575	24.54
356.788	47.07
357.001	18.81
357.213	-2.08
357.426	70.01
357.639	45.02
357.851	40.11
358.064	52.39
358.277	6.52
358.489	-6.59
358.702	32.32
358.914	-48.37
359.127	11.02
359.34	30.69
359.552	42.15
359.765	-8.23
359.977	85.57
360.19	72.05
360.402	13.89
360.615	13.89
360.827	-3.31
361.04	124.48
361.252	9.8
361.465	32.73
361.677	32.32
361.889	45.84
362.102	-16.01
362.314	61.81
362.526	49.12
362.739	13.07
362.951	28.23
363.163	34.78
363.376	-15.6
363.588	-22.56
363.8	-1.67
364.012	80.66
364.225	-40.17
364.437	37.65
364.649	138
364.861	17.99
365.074	24.95
365.286	31.91
365.498	27.41
365.71	42.15
365.922	10.21
366.134	11.84
366.346	17.17
366.558	25.77
366.77	-23.79
366.983	66.73
367.195	-24.2
367.407	49.12
367.619	72.46
367.831	63.04
368.043	20.86
368.255	51.98
368.467	43.38
368.678	39.29
368.89	-75.4
369.102	40.52
369.314	69.19
369.526	-7.82
369.738	43.38
369.95	18.81
370.162	43.38
370.373	22.49
370.585	49.94
370.797	73.28
371.009	49.94
371.221	-9.45
371.432	17.99
371.644	90.9
371.856	5.29
372.068	-11.09
372.279	24.95
372.491	63.04
372.703	-7.41
372.914	34.78
373.126	43.79
373.338	-59.83
373.549	68.78
373.761	13.89
373.972	-9.05
374.184	12.25
374.395	48.3
374.607	39.29
374.819	-41.81
375.03	18.81
375.242	51.98
375.453	-0.03
375.664	13.89
375.876	45.02
376.087	12.25
376.299	66.73
376.51	20.86
376.722	7.34
376.933	63.86
377.144	94.17
377.356	-23.79
377.567	22.49
377.778	58.95
377.99	6.93
378.201	43.38
378.412	26.18
378.624	15.94
378.835	-6.18
379.046	-38.13
379.257	14.3
379.468	50.35
379.68	-2.9
379.891	-12.32
380.102	5.29
380.313	-5.36
380.524	18.81
380.735	10.21
380.946	-14.78
381.158	5.7
381.369	1.19
381.58	55.67
381.791	-42.63
382.002	-21.74
382.213	36.01
382.424	53.62
382.635	61.4
382.846	63.86
383.057	59.36
383.268	-36.49
383.479	17.99
383.69	4.88
383.9	101.95
384.111	70.01
384.322	-27.48
384.533	-13.96
384.744	38.06
384.955	31.5
385.166	21.67
385.376	7.75
385.587	36.01
385.798	-18.47
386.009	-27.48
386.22	9.39
386.43	51.17
386.641	47.89
386.852	55.26
387.062	51.57
387.273	56.49
387.484	13.48
387.694	12.66
387.905	6.52
388.116	12.66
388.326	13.07
388.537	69.19
388.747	47.48
388.958	100.73
389.168	34.37
389.379	1.19
389.59	4.47
389.8	-0.03
390.011	11.84
390.221	50.76
390.431	47.89
390.642	51.17
390.852	58.95
391.063	-4.54
391.273	33.14
391.484	-6.18
391.694	-0.03
391.904	16.35
392.115	28.23
392.325	31.09
392.535	10.21
392.746	79.84
392.956	70.42
393.166	-39.36
393.376	13.07
393.587	77.38
393.797	72.05
394.007	82.7
394.217	12.25
394.427	45.43
394.638	45.43
394.848	85.16
395.058	85.98
395.268	-28.3
395.478	71.64
395.688	-2.9
395.898	36.42
396.108	36.83
396.318	18.81
396.528	45.84
396.738	62.63
396.948	81.48
397.158	-16.42
397.368	53.62
397.578	-52.05
397.788	60.59
397.998	-76.22
398.208	28.64
398.418	-46.32
398.628	16.76
398.838	3.24
399.048	49.12
399.258	60.59
399.467	79.02
399.677	33.55
399.887	17.58
400.097	22.9
400.307	72.87
400.516	24.95
400.726	-10.68
400.936	9.8
401.146	6.52
401.355	31.09
401.565	47.48
401.775	-20.92
401.984	-20.1
402.194	-43.04
402.404	56.08
402.613	10.62
402.823	0.79
403.032	40.93
403.242	-34.44
403.452	-11.09
403.661	49.12
403.871	-13.14
404.08	75.33
404.29	83.11
404.499	15.53
404.709	-10.68
404.918	41.33
405.128	49.53
405.337	18.4
405.546	29.05
405.756	-13.96
405.965	51.17
406.175	45.43
406.384	52.39
406.593	54.03
406.803	-60.65
407.012	24.95
407.221	-34.44
407.43	19.63
407.64	9.8
407.849	1.19
408.058	-9.86
408.267	3.65
408.477	-29.93
408.686	-10.68
408.895	-41.81
409.104	36.42
409.313	-26.66
409.522	-54.51
409.732	9.8
409.941	68.78
410.15	61.81
410.359	92.53
410.568	-25.02
410.777	62.63
410.986	56.08
411.195	8.98
411.404	22.08
411.613	36.01
411.822	22.49
412.031	55.26
412.24	10.62
412.449	9.8
412.658	5.29
412.867	31.09
413.075	12.66
413.284	40.52
413.493	21.26
413.702	50.35
413.911	68.78
414.12	53.21
414.328	24.54
414.537	48.3
414.746	42.15
414.955	29.05
415.164	-7.41
415.372	47.07
415.581	59.77
415.79	-33.62
415.998	7.34
416.207	36.83
416.416	70.42
416.624	21.26
416.833	67.55
417.042	70.42
417.25	56.9
417.459	18.4
417.667	17.99
417.876	61
418.084	33.96
418.293	-50.41
418.501	0.79
418.71	3.65
418.918	-1.67
419.127	-18.47
419.335	8.16
419.544	-37.72
419.752	4.47
419.96	61
420.169	-14.78
420.377	40.52
420.586	43.38
420.794	42.15
421.002	23.31
421.211	56.9
421.419	-24.61
421.627	-30.75
421.835	18.81
422.044	-11.91
422.252	61.81
422.46	48.71
422.668	11.84
422.877	-9.86
423.085	75.33
423.293	24.95
423.501	40.11
423.709	-9.86
423.917	-9.86
424.125	-19.29
424.333	-3.72
424.542	14.71
424.75	32.32
424.958	12.66
425.166	16.35
425.374	85.98
425.582	57.72
425.79	-1.67
425.998	-35.26
426.206	49.53
426.414	42.56
426.621	0.79
426.829	0.38
427.037	22.9
427.245	93.76
427.453	67.14
427.661	-40.99
427.869	92.94
428.077	22.49
428.284	-4.54
428.492	31.09
428.7	-14.78
428.908	12.25
429.115	50.35
429.323	42.97
429.531	42.97
429.739	85.57
429.946	90.9
430.154	11.84
430.362	26.59
430.569	16.76
430.777	76.56
430.985	-5.36
431.192	40.52
431.4	82.29
431.607	-2.9
431.815	110.56
432.022	-14.78
432.23	29.05
432.437	53.62
432.645	-36.9
432.852	-16.42
433.06	48.3
433.267	40.93
433.475	4.06
433.682	69.6
433.89	-15.6
434.097	38.47
434.304	36.42
434.512	1.6
434.719	24.95
434.926	-17.65
435.134	-9.86
435.341	43.79
435.548	73.28
435.756	97.86
435.963	-8.64
436.17	8.57
436.377	35.19
436.585	-30.34
436.792	-12.73
436.999	-32.8
437.206	-2.9
437.413	63.86
437.621	-32.8
437.828	60.18
438.035	24.95
438.242	16.76
438.449	46.25
438.656	23.31
438.863	50.76
439.07	6.93
439.277	63.86
439.484	-7
439.691	21.67
439.898	49.53
440.105	2.01
440.312	-32.8
440.519	-65.98
440.726	65.91
440.933	-53.28
441.14	17.99
441.347	3.65
441.553	16.76
441.76	46.66
441.967	44.2
442.174	12.66
442.381	-11.91
442.587	-42.63
442.794	2.42
443.001	-44.68
443.208	-4.54
443.414	94.17
443.621	26.59
443.828	20.45
444.035	21.26
444.241	-7.82
444.448	63.04
444.654	39.7
444.861	40.11
445.068	93.76
445.274	-23.38
445.481	-9.45
445.687	81.07
445.894	-16.83
446.101	49.12
446.307	90.49
446.514	-50
446.72	20.86
446.926	-13.14
447.133	12.66
447.339	-0.03
447.546	49.53
447.752	26.18
447.959	-54.51
448.165	-7
448.371	5.7
448.578	12.66
448.784	54.44
448.99	51.98
449.197	-58.2
449.403	49.94
449.609	9.8
449.816	69.19
450.022	-14.78
450.228	58.13
450.434	58.54
450.64	31.91
450.847	-8.23
451.053	66.32
451.259	-0.85
451.465	35.19
451.671	105.64
451.877	113.01
452.083	9.8
452.289	6.52
452.496	13.89
452.702	-29.93
452.908	18.4
453.114	69.19
453.32	-16.83
453.526	-21.33
453.732	-15.6
453.938	-2.49
454.144	31.09
454.349	55.67
454.555	30.69
454.761	89.67
454.967	-4.54
455.173	24.13
455.379	74.92
455.585	84.34
455.791	44.61
455.996	24.13
456.202	22.49
456.408	12.66
456.614	30.69
456.819	-11.09
457.025	9.39
457.231	63.04
457.437	-36.9
457.642	31.09
457.848	65.09
458.054	15.53
458.259	54.85
458.465	61.4
458.671	1.19
458.876	-9.45
459.082	54.85
459.287	-21.33
459.493	27.82
459.698	8.57
459.904	36.42
460.109	26.18
460.315	-16.01
460.52	10.21
460.726	20.45
460.931	12.66
461.137	8.57
461.342	88.03
461.548	-8.64
461.753	40.11
461.958	14.71
462.164	62.22
462.369	-33.62
462.574	26.59
462.78	17.58
462.985	-13.14
463.19	8.98
463.396	90.9
463.601	24.95
463.806	18.81
464.011	5.7
464.216	1.6
464.422	16.35
464.627	131.45
464.832	-0.44
465.037	28.23
465.242	0.38
465.447	24.13
465.653	14.3
465.858	44.2
466.063	82.29
466.268	45.84
466.473	-21.33
466.678	110.56
466.883	24.13
467.088	84.34
467.293	68.78
467.498	29.87
467.703	17.17
467.908	49.94
468.113	20.45
468.317	35.6
468.522	106.05
468.727	38.47
468.932	5.29
469.137	69.6
469.342	-22.15
469.547	26.18
469.751	-0.44
469.956	38.88
470.161	-11.91
470.366	36.83
470.57	39.7
470.775	11.43
470.98	42.97
471.185	-12.32
471.389	-29.52
471.594	4.47
471.799	-6.18
472.003	44.61
472.208	49.53
472.412	19.22
472.617	-14.78
472.822	56.49
473.026	41.74
473.231	83.11
473.435	-19.29
473.64	11.43
473.844	25.77
474.049	-1.67
474.253	58.95
474.458	35.19
474.662	-2.49
474.866	11.43
475.071	59.36
475.275	8.98
475.48	7.34
475.684	60.59
475.888	1.19
476.093	33.96
476.297	43.38
476.501	44.2
476.706	-11.09
476.91	78.2
477.114	15.53
477.318	31.91
477.523	4.88
477.727	39.29
477.931	48.3
478.135	51.17
478.339	44.61
478.543	-15.6
478.748	-37.31
478.952	41.74
479.156	-25.84
479.36	55.26
479.564	-64.75
479.768	34.78
479.972	14.3
480.176	22.9
480.38	-38.54
480.584	56.49
480.788	3.65
480.992	8.16
481.196	-2.08
481.4	29.46
481.604	3.65
481.808	53.21
482.012	17.99
482.215	56.08
482.419	7.75
482.623	18.81
482.827	24.54
483.031	24.95
483.235	42.97
483.438	17.99
483.642	8.16
483.846	76.56
484.05	32.32
484.253	-59.43
484.457	65.91
484.661	-19.29
484.864	10.62
485.068	-4.13
485.272	28.64
485.475	35.6
485.679	27.82
485.883	58.95
486.086	2.42
486.29	25.36
486.493	15.12
486.697	45.43
486.9	-49.19
487.104	6.93
487.307	17.99
487.511	4.47
487.714	-48.37
487.918	52.8
488.121	-19.69
488.325	-11.09
488.528	-18.88
488.731	-1.67
488.935	69.19
489.138	64.27
489.341	14.71
489.545	126.12
489.748	72.05
489.951	44.2
490.155	74.1
490.358	54.44
490.561	-5.77
490.764	-4.54
490.967	4.06
491.171	74.51
491.374	40.52
491.577	38.88
491.78	25.36
491.983	8.98
492.186	55.67
492.39	9.8
492.593	5.7
492.796	16.35
492.999	59.77
493.202	47.07
493.405	45.43
493.608	-0.03
493.811	31.5
494.014	-27.89
494.217	43.38
494.42	43.79
494.623	122.02
494.826	24.54
495.029	17.58
495.231	10.21
495.434	33.55
495.637	-7
495.84	65.91
496.043	-1.67
496.246	69.19
496.448	31.09
496.651	108.92
496.854	-12.73
497.057	43.79
497.259	127.35
497.462	53.62
497.665	45.84
497.868	-31.16
498.07	12.66
498.273	56.08
498.476	80.25
498.678	-11.09
498.881	62.63
499.083	-53.69
499.286	54.44
499.489	7.75
499.691	55.67
499.894	81.48
500.096	58.54
500.299	-32.39
500.501	52.8
500.704	-7.82
500.906	29.46
501.109	11.02
501.311	19.22
501.513	11.43
501.716	-35.26
501.918	-16.01
502.121	45.02
502.323	-37.72
502.525	-2.08
502.728	116.29
502.93	11.02
503.132	-16.83
503.334	24.95
503.537	45.02
503.739	-11.91
503.941	-24.2
504.143	6.52
504.346	22.49
504.548	-27.48
504.75	37.65
504.952	8.57
505.154	-35.67
505.356	63.04
505.558	35.6
505.761	55.26
505.963	65.91
506.165	94.99
506.367	30.69
506.569	103.59
506.771	81.48
506.973	51.98
507.175	-60.24
507.377	132.67
507.579	50.35
507.781	8.98
507.982	22.08
508.184	48.71
508.386	88.85
508.588	-38.95
508.79	-15.19
508.992	61
509.194	74.92
509.395	61.81
509.597	-11.91
509.799	80.66
510.001	81.48
510.203	56.08
510.404	-7.41
510.606	8.98
510.808	41.33
511.009	-29.93
511.211	-46.73
511.413	138
511.614	46.25
511.816	54.03
512.018	40.52
512.219	69.6
512.421	-27.48
512.622	39.7
512.824	3.24
513.025	-4.95
513.227	22.49
513.428	116.7
513.63	-9.45
513.831	51.98
514.033	81.48
514.234	23.31
514.436	84.75
514.637	21.67
514.838	74.51
515.04	-6.59
515.241	26.59
515.443	139.23
515.644	-5.36
515.845	40.52
516.046	1.19
516.248	123.25
516.449	72.46
516.65	27
516.851	-32.8
517.053	31.5
517.254	-9.45
517.455	68.78
517.656	23.31
517.857	-9.05
518.059	58.95
518.26	40.52
518.461	10.21
518.662	45.43
518.863	3.65
519.064	29.87
519.265	-1.67
519.466	-9.05
519.667	46.25
519.868	147.83
520.069	-5.77
520.27	-25.84
520.471	11.43
520.672	86.39
520.873	41.33
521.074	63.04
521.275	7.34
521.476	24.13
521.676	97.45
521.877	37.24
522.078	71.64
522.279	17.17
522.48	-18.47
522.681	70.01
522.881	33.55
523.082	34.37
523.283	45.43
523.483	-25.84
523.684	55.67
523.885	25.36
524.086	24.13
524.286	-60.65
524.487	33.14
524.687	43.79
524.888	-69.67
525.089	36.83
525.289	-4.54
525.49	-40.58
525.69	9.8
525.891	151.11
526.091	33.96
526.292	6.52
526.492	25.77
526.693	15.94
526.893	-14.37
527.094	14.3
527.294	-0.44
527.495	-19.69
527.695	56.08
527.895	8.98
528.096	42.97
528.296	20.45
528.496	2.01
528.697	39.7
528.897	28.64
529.097	15.94
529.298	70.83
529.498	34.37
529.698	-12.73
529.898	-26.25
530.098	-19.29
530.299	47.89
530.499	9.39
530.699	28.23
530.899	29.87
531.099	25.77
531.299	47.48
531.499	-0.44
531.7	84.75
531.9	117.11
532.1	74.92
532.3	71.24
532.5	90.9
532.7	94.99
532.9	25.36
533.1	0.38
533.3	-10.27
533.5	54.44
533.699	46.25
533.899	76.56
534.099	57.72
534.299	57.31
534.499	31.09
534.699	34.78
534.899	-18.88
535.098	64.27
535.298	64.27
535.498	74.1
535.698	68.78
535.898	43.79
536.097	20.86
536.297	13.48
536.497	29.87
536.696	15.53
536.896	-24.2
537.096	53.21
537.295	67.55
537.495	-13.96
537.695	39.29
537.894	7.34
538.094	11.02
538.293	31.5
538.493	51.98
538.692	140.05
538.892	88.44
539.091	-12.73
539.291	74.1
539.49	15.53
539.69	114.24
539.889	64.68
540.089	-18.88
540.288	2.83
540.487	-31.57
540.687	61.4
540.886	16.76
541.085	-13.14
541.285	22.49
541.484	30.28
541.683	58.13
541.883	58.95
542.082	44.61
542.281	38.47
542.48	17.17
542.68	81.07
542.879	41.74
543.078	38.47
543.277	13.89
543.476	-38.95
543.675	-22.97
543.874	36.42
544.074	-2.9
544.273	9.8
544.472	38.06
544.671	120.8
544.87	38.47
545.069	70.83
545.268	141.28
545.467	95.81
545.666	43.38
545.865	-22.97
546.064	117.52
546.263	42.56
546.462	-9.05
546.66	-8.64
546.859	49.53
547.058	55.67
547.257	16.76
547.456	42.15
547.655	-0.44
547.853	107.28
548.052	38.06
548.251	-3.31
548.45	77.38
548.648	89.67
548.847	-2.08
549.046	38.88
549.245	-3.72
549.443	-25.84
549.642	51.17
549.841	63.45
550.039	29.46
550.238	28.64
550.436	49.12
550.635	5.29
550.834	-7
551.032	22.49
551.231	-22.15
551.429	6.93
551.628	-14.37
551.826	18.4
552.025	-5.77
552.223	-1.67
552.421	-7.82
552.62	76.97
552.818	40.11
553.017	21.67
553.215	13.07
553.413	94.58
553.612	-10.27
553.81	27.41
554.008	21.67
554.207	52.8
554.405	54.03
554.603	10.62
554.801	5.7
555	47.48
555.198	77.79
555.396	28.64
555.594	27.82
555.792	29.05
555.991	-0.44
556.189	65.5
556.387	113.01
556.585	33.55
556.783	112.6
556.981	33.14
557.179	126.53
557.377	41.33
557.575	52.8
557.773	87.62
557.971	9.39
558.169	9.8
558.367	59.36
558.565	18.4
558.763	-2.49
558.961	4.06
559.159	-18.88
559.357	44.61
559.554	60.18
559.752	87.21
559.95	-36.49
560.148	52.39
560.346	7.34
560.544	68.37
560.741	52.39
560.939	16.35
561.137	5.7
561.334	-24.61
561.532	51.57
561.73	15.94
561.928	29.87
562.125	13.07
562.323	31.5
562.52	5.7
562.718	38.47
562.916	94.58
563.113	4.47
563.311	21.26
563.508	22.08
563.706	49.94
563.903	44.2
564.101	32.73
564.298	108.51
564.496	74.51
564.693	44.2
564.891	-2.9
565.088	97.86
565.285	23.31
565.483	68.78
565.68	34.78
565.878	19.22
566.075	48.3
566.272	27.82
566.469	-7
566.667	6.93
566.864	30.28
567.061	85.57
567.259	62.63
567.456	55.67
567.653	7.75
567.85	53.21
568.047	11.43
568.244	20.86
568.442	-69.26
568.639	63.86
568.836	40.52
569.033	29.87
569.23	24.13
569.427	43.38
569.624	37.65
569.821	5.7
570.018	33.14
570.215	46.25
570.412	7.75
570.609	-11.5
570.806	30.69
571.003	48.3
571.2	28.23
571.397	79.02
571.594	-0.44
571.791	76.56
571.987	-12.73
572.184	43.38
572.381	80.66
572.578	41.33
572.775	21.26
572.971	-13.55
573.168	-8.64
573.365	40.52
573.562	-5.77
573.758	62.22
573.955	51.57
574.152	8.16
574.348	58.95
574.545	94.17
574.742	29.46
574.938	110.56
575.135	-9.45
575.331	44.2
575.528	35.19
575.725	26.59
575.921	11.43
576.118	11.84
576.314	-15.19
576.511	31.09
576.707	44.61
576.903	-8.64
577.1	-65.98
577.296	-1.26
577.493	-22.56
577.689	8.98
577.885	116.29
578.082	36.01
578.278	78.61
578.474	68.37
578.671	20.86
578.867	36.42
579.063	-29.12
579.26	-32.39
579.456	49.12
579.652	-7.82
579.848	-10.27
580.044	13.48
580.241	-10.27
580.437	42.56
580.633	70.83
580.829	23.31
581.025	66.73
581.221	6.11
581.417	-6.59
581.613	62.63
581.809	58.54
582.005	63.04
582.201	40.11
582.397	71.24
582.593	30.69
582.789	79.43
582.985	3.24
583.181	51.57
583.377	52.8
583.573	-51.23
583.769	28.64
583.965	12.66
584.161	51.17
584.357	38.47
584.552	49.53
584.748	13.07
584.944	20.04
585.14	16.76
585.335	-8.23
585.531	11.84
585.727	-2.49
585.923	11.84
586.118	87.21
586.314	64.27
586.51	33.55
586.705	53.21
586.901	44.2
587.097	35.6
587.292	54.44
587.488	48.3
587.683	44.2
587.879	13.89
588.074	68.37
588.27	20.86
588.465	33.14
588.661	136.36
588.856	8.57
589.052	46.66
589.247	13.89
589.443	20.04
589.638	125.71
589.833	-10.27
590.029	90.08
590.224	35.19
590.419	56.9
590.615	11.43
590.81	17.99
591.005	13.89
591.201	63.86
591.396	43.38
591.591	54.85
591.786	51.98
591.981	41.74
592.177	-33.62
592.372	7.34
592.567	-10.68
592.762	22.9
592.957	24.13
593.152	47.89
593.347	-2.49
593.543	30.28
593.738	30.69
593.933	59.77
594.128	134.31
594.323	38.47
594.518	9.8
594.713	20.04
594.908	27.41
595.103	14.3
595.297	62.22
595.492	64.27
595.687	-25.02
595.882	76.56
596.077	59.77
596.272	-4.54
596.467	79.02
596.661	108.92
596.856	162.57
597.051	19.22
597.246	23.72
597.441	40.93
597.635	110.97
597.83	12.25
598.025	50.35
598.219	8.57
598.414	11.84
598.609	90.9
598.803	-23.38
598.998	3.24
599.193	28.64
599.387	-24.61
599.582	-16.42
599.776	48.71
599.971	49.53
600.165	-9.86
600.36	62.22
600.554	42.15
600.749	120.8
600.943	23.31
601.138	29.87
601.332	53.62
601.526	69.19
601.721	8.98
601.915	77.38
602.11	-8.64
602.304	40.93
602.498	-16.01
602.693	16.35
602.887	33.55
603.081	1.19
603.275	82.7
603.47	-11.09
603.664	100.73
603.858	42.97
604.052	81.88
604.246	140.05
604.441	36.42
604.635	-6.59
604.829	82.29
605.023	85.98
605.217	118.75
605.411	-47.14
605.605	85.57
605.799	78.2
605.993	91.71
606.187	68.37
606.381	115.88
606.575	55.26
606.769	66.73
606.963	51.57
607.157	78.2
607.351	6.93
607.545	28.23
607.739	103.18
607.933	72.87
608.126	17.17
608.32	85.16
608.514	61.81
608.708	66.73
608.902	45.43
609.095	17.17
609.289	57.31
609.483	106.87
609.677	116.7
609.87	79.43
610.064	38.47
610.258	67.96
610.451	155.2
610.645	55.26
610.839	28.64
611.032	44.61
611.226	72.87
611.419	-15.19
611.613	-19.29
611.806	78.61
612	33.55
612.193	36.01
612.387	18.81
612.58	50.35
612.774	149.88
612.967	112.19
613.161	55.67
613.354	99.09
613.548	85.98
613.741	117.52
613.934	38.47
614.128	-29.93
614.321	54.03
614.514	141.69
614.707	-7.41
614.901	45.84
615.094	107.69
615.287	99.5
615.48	25.36
615.674	63.04
615.867	89.67
616.06	96.22
616.253	12.25
616.446	4.06
616.639	29.05
616.833	117.93
617.026	112.6
617.219	87.21
617.412	10.62
617.605	89.67
617.798	63.45
617.991	22.08
618.184	63.45
618.377	63.04
618.57	58.95
618.763	23.31
618.956	100.73
619.149	41.33
619.341	76.15
619.534	8.16
619.727	92.12
619.92	69.6
620.113	104.41
620.306	43.38
620.498	73.28
620.691	68.78
620.884	27.41
621.077	47.89
621.269	18.81
621.462	74.1
621.655	68.37
621.848	22.49
622.04	84.75
622.233	41.33
622.425	24.95
622.618	68.78
622.811	42.97
623.003	65.91
623.196	163.39
623.388	140.05
623.581	59.77
623.773	60.18
623.966	97.86
624.158	84.75
624.351	106.46
624.543	152.33
624.736	66.32
624.928	121.21
625.121	43.38
625.313	108.51
625.505	34.78
625.698	124.89
625.89	51.98
626.082	68.78
626.275	61
626.467	63.45
626.659	88.03
626.851	172.81
627.044	35.6
627.236	88.03
627.428	69.6
627.62	109.74
627.812	49.12
628.004	50.35
628.197	158.89
628.389	96.63
628.581	77.79
628.773	72.87
628.965	59.77
629.157	59.36
629.349	3.65
629.541	73.69
629.733	86.8
629.925	94.17
630.117	65.09
630.309	16.35
630.501	91.31
630.693	44.61
630.885	103.18
631.077	20.45
631.268	65.09
631.46	47.89
631.652	38.88
631.844	63.86
632.036	42.56
632.228	96.63
632.419	71.64
632.611	64.27
632.803	36.01
632.995	164.21
633.186	48.71
633.378	113.83
633.57	111.38
633.761	71.64
633.953	168.72
634.144	55.67
634.336	45.02
634.528	99.5
634.719	23.72
634.911	56.08
635.102	66.73
635.294	39.29
635.485	173.22
635.677	107.28
635.868	15.53
636.06	81.88
636.251	82.7
636.443	145.78
636.634	114.65
636.825	94.17
637.017	41.33
637.208	75.74
637.399	91.31
637.591	108.51
637.782	24.54
637.973	61.81
638.165	62.63
638.356	120.8
638.547	117.11
638.738	109.74
638.929	109.33
639.121	114.65
639.312	30.69
639.503	61
639.694	62.63
639.885	116.29
640.076	53.62
640.267	76.15
640.458	130.63
640.649	30.69
640.841	65.91
641.032	114.24
641.223	227.7
641.414	108.1
641.604	88.44
641.795	42.15
641.986	74.51
642.177	84.75
642.368	99.5
642.559	158.07
642.75	66.32
642.941	118.75
643.132	160.94
643.322	69.19
643.513	138.41
643.704	133.9
643.895	184.28
644.085	136.77
644.276	106.05
644.467	182.64
644.658	159.71
644.848	145.37
645.039	94.17
645.23	196.16
645.42	54.03
645.611	126.94
645.801	180.19
645.992	128.58
646.183	194.52
646.373	185.92
646.564	178.14
646.754	249.41
646.945	207.22
647.135	236.71
647.326	163.8
647.516	226.06
647.707	195.34
647.897	218.28
648.087	190.02
648.278	255.14
648.468	257.6
648.658	192.88
648.849	244.49
649.039	333.78
649.229	263.33
649.42	307.16
649.61	360.41
649.8	316.58
649.99	447.24
650.181	442.74
650.371	489.02
650.561	499.26
650.751	632.38
650.941	600.02
651.131	613.13
651.321	712.66
651.512	771.64
651.702	1007.98
651.892	1329.51
652.082	1730.91
652.272	2501.35
652.462	3912.81
652.652	8958.19
652.842	23644.17
653.032	41819.9
653.222	52521.76
653.412	59426.69
653.601	62368.81
653.791	62368.81
653.981	62368.81
654.171	62368.81
654.361	62368.81
654.551	62368.81
654.741	62368.81
654.93	62368.81
655.12	62368.81
655.31	62368.81
655.5	62368.81
655.689	62368.81
655.879	59927.22
656.069	49250.34
656.258	43939.95
656.448	40173.33
656.638	39566.31
656.827	39016.23
657.017	38666.03
657.207	38458.77
657.396	38291.66
657.586	26753.81
657.775	26782.07
657.965	17818.52
658.154	17543.69
658.344	2543.54
658.533	2550.51
658.723	1889.83
658.912	1927.51
659.102	1486.38
659.291	1515.05
659.48	1306.57
659.67	1306.57
659.859	1177.55
660.048	1154.61
660.238	1071.05
660.427	1014.12
660.616	864.62
660.806	1021.49
660.995	859.29
661.184	896.98
661.373	700.37
661.562	822.43
661.752	677.84
661.941	741.33
662.13	683.99
662.319	785.57
662.508	659.82
662.697	704.47
662.886	604.53
663.075	641.8
663.264	549.23
663.453	605.35
663.643	545.95
663.832	571.76
664.02	481.24
664.209	525.88
664.398	513.6
664.587	532.44
664.776	530.39
664.965	502.13
665.154	430.45
665.343	483.29
665.532	428.81
665.721	394.4
665.909	425.12
666.098	414.88
666.287	431.27
666.476	385.8
666.664	316.17
666.853	415.7
667.042	396.04
667.231	320.68
667.419	314.53
667.608	331.33
667.797	290.37
667.985	408.74
668.174	262.11
668.362	375.15
668.551	328.05
668.739	370.24
668.928	294.87
669.117	301.02
669.305	285.86
669.494	375.15
669.682	382.53
669.87	298.56
670.059	380.48
670.247	319.04
670.436	301.84
670.624	305.11
670.812	262.11
671.001	387.85
671.189	175.27
671.377	300.61
671.566	264.56
671.754	301.84
671.942	275.62
672.131	239.58
672.319	294.87
672.507	321.09
672.695	259.65
672.883	267.43
673.072	270.71
673.26	273.16
673.448	225.65
673.636	242.04
673.824	228.52
674.012	261.29
674.2	235.07
674.388	259.65
674.576	246.13
674.764	213.36
674.952	235.07
675.14	237.12
675.328	216.23
675.516	170.77
675.704	172.81
675.892	264.56
676.08	196.57
676.268	235.07
676.456	153.97
676.643	184.28
676.831	217.87
677.019	259.65
677.207	193.29
677.395	136.77
677.582	249.41
677.77	200.26
677.958	294.05
678.146	147.42
678.333	244.9
678.521	163.39
678.709	192.47
678.896	148.24
679.084	183.05
679.271	160.12
679.459	199.85
679.647	176.09
679.834	280.13
680.022	188.79
680.209	111.38
680.397	242.85
680.584	121.62
680.772	183.87
680.959	171.59
681.147	134.72
681.334	138.82
681.521	125.71
681.709	223.6
681.896	180.19
682.083	137.18
682.271	218.69
682.458	140.05
682.645	173.63
682.833	181.42
683.02	177.32
683.207	107.69
683.394	156.43
683.582	184.69
683.769	208.04
683.956	152.33
684.143	178.55
684.33	194.52
684.517	149.06
684.705	188.79
684.892	131.86
685.079	219.1
685.266	185.51
685.453	108.51
685.64	177.32
685.827	108.1
686.014	107.28
686.201	148.65
686.388	116.7
686.575	161.76
686.762	159.71
686.948	157.25
687.135	140.87
687.322	182.64
687.509	105.64
687.696	115.06
687.883	159.71
688.07	138
688.256	136.77
688.443	150.7
688.63	128.99
688.817	143.32
689.003	145.78
689.19	27
689.377	72.46
689.563	146.6
689.75	140.46
689.937	131.04
690.123	133.49
690.31	128.99
690.496	58.95
690.683	97.45
690.869	104.82
691.056	140.87
691.242	100.73
691.429	117.52
691.615	87.21
691.802	56.49
691.988	83.93
692.175	78.61
692.361	76.15
692.548	115.06
692.734	128.99
692.92	125.71
693.107	83.11
693.293	137.59
693.479	149.06
693.665	123.25
693.852	53.21
694.038	121.21
694.224	175.68
694.41	140.46
694.597	115.88
694.783	191.25
694.969	115.47
695.155	49.53
695.341	142.91
695.527	56.49
695.713	129.4
695.9	76.56
696.086	68.37
696.272	144.14
696.458	137.18
696.644	86.39
696.83	165.44
697.016	152.33
697.202	165.85
697.387	75.33
697.573	148.24
697.759	212.55
697.945	144.55
698.131	139.64
698.317	121.62
698.503	107.28
698.689	75.33
698.874	109.33
699.06	35.19
699.246	18.4
699.432	119.16
699.617	142.91
699.803	131.04
699.989	104.41
700.174	104.82
700.36	90.49
700.546	113.42
700.731	64.27
700.917	116.7
701.103	66.32
701.288	35.6
701.474	106.05
701.659	42.15
701.845	71.64
702.03	119.57
702.216	130.22
702.401	227.29
702.587	60.59
702.772	50.76
702.958	10.21
703.143	133.08
703.328	77.79
703.514	118.34
703.699	123.66
703.884	84.34
704.07	90.49
704.255	151.52
704.44	126.12
704.626	107.69
704.811	134.31
704.996	91.31
705.181	94.17
705.366	157.66
705.552	141.28
705.737	110.56
705.922	69.19
706.107	113.83
706.292	101.55
706.477	83.11
706.662	109.33
706.847	83.11
707.032	108.51
707.217	154.79
707.402	105.23
707.587	106.87
707.772	74.51
707.957	79.02
708.142	174.86
708.327	125.71
708.512	41.33
708.697	77.38
708.882	72.46
709.067	87.62
709.252	47.48
709.436	77.79
709.621	64.27
709.806	117.52
709.991	43.79
710.175	72.05
710.36	80.66
710.545	97.04
710.73	106.46
710.914	135.95
711.099	50.35
711.284	117.93
711.468	83.93
711.653	140.46
711.837	74.1
712.022	106.87
712.206	12.66
712.391	140.87
712.576	124.89
712.76	114.24
712.944	158.48
713.129	90.9
713.313	104.82
713.498	98.27
713.682	76.97
713.867	128.58
714.051	69.6
714.235	60.59
714.42	98.68
714.604	8.57
714.788	74.92
714.973	46.66
715.157	38.88
715.341	65.91
715.525	116.29
715.71	38.06
715.894	82.7
716.078	148.65
716.262	48.71
716.446	94.99
716.63	102.77
716.815	29.87
716.999	40.93
717.183	113.01
717.367	97.45
717.551	150.7
717.735	127.35
717.919	66.73
718.103	57.72
718.287	74.1
718.471	32.73
718.655	105.64
718.839	45.84
719.023	135.13
719.207	142.09
719.39	142.91
719.574	110.15
719.758	86.39
719.942	67.14
720.126	89.26
720.31	6.93
720.493	79.02
720.677	15.12
720.861	120.8
721.044	71.64
721.228	6.52
721.412	31.91
721.596	92.94
721.779	95.81
721.963	44.2
722.146	49.94
722.33	67.55
722.514	91.71
722.697	72.05
722.881	113.01
723.064	1.19
723.248	65.5
723.431	92.53
723.615	25.36
723.798	61.81
723.982	12.25
724.165	36.01
724.348	42.15
724.532	166.26
724.715	34.37
724.898	11.84
725.082	47.89
725.265	77.79
725.448	47.48
725.632	70.83
725.815	87.21
725.998	96.22
726.181	-46.73
726.365	66.32
726.548	57.72
726.731	70.01
726.914	-3.31
727.097	63.04
727.28	33.14
727.463	75.74
727.647	104.82
727.83	60.59
728.013	53.62
728.196	60.18
728.379	74.1
728.562	82.29
728.745	41.33
728.928	54.44
729.111	-18.06
729.294	38.06
729.476	58.13
729.659	65.09
729.842	71.24
730.025	8.16
730.208	98.27
730.391	41.74
730.574	51.98
730.756	203.12
730.939	104.41
731.122	201.49
731.305	50.35
731.487	75.33
731.67	41.33
731.853	98.27
732.035	57.72
732.218	70.42
732.401	78.61
732.583	63.45
732.766	64.27
732.948	66.73
733.131	89.26
733.313	138.82
733.496	140.87
733.678	63.86
733.861	4.88
734.043	52.8
734.226	11.43
734.408	96.22
734.591	65.5
734.773	119.16
734.956	-56.56
735.138	5.7
735.32	55.67
735.503	96.63
735.685	60.59
735.867	141.69
736.049	135.13
736.232	108.1
736.414	-15.19
736.596	52.8
736.778	40.11
736.961	46.66
737.143	29.46
737.325	6.93
737.507	95.81
737.689	42.15
737.871	39.29
738.053	143.32
738.235	-11.91
738.417	89.26
738.599	29.46
738.781	58.95
738.963	25.36
739.145	87.21
739.327	65.5
739.509	51.17
739.691	23.31
739.873	75.74
740.055	59.36
740.237	61.81
740.419	57.31
740.601	97.45
740.782	-5.36
740.964	47.48
741.146	94.99
741.328	155.61
741.509	7.75
741.691	-4.95
741.873	48.3
742.055	88.85
742.236	67.55
742.418	144.55
742.6	66.73
742.781	-11.5
742.963	29.05
743.144	-0.85
743.326	132.26
743.508	49.12
743.689	31.5
743.871	94.99
744.052	-28.3
744.234	88.03
744.415	14.71
744.596	53.21
744.778	81.48
744.959	52.8
745.141	12.66
745.322	97.45
745.503	36.01
745.685	81.48
745.866	75.74
746.047	11.84
746.229	76.15
746.41	85.98
746.591	24.13
746.772	72.05
746.954	31.5
747.135	61.4
747.316	62.22
747.497	68.78
747.678	41.74
747.859	24.54
748.041	106.46
748.222	120.8
748.403	113.42
748.584	47.48
748.765	39.7
748.946	43.38
749.127	82.7
749.308	144.96
749.489	31.09
749.67	79.02
749.851	131.86
750.032	-31.16
750.212	81.07
750.393	27
750.574	27.41
750.755	69.19
750.936	34.37
751.117	10.62
751.297	13.48
751.478	102.36
751.659	32.32
751.84	70.83
752.02	72.46
752.201	8.16
752.382	34.37
752.562	2.01
752.743	75.74
752.924	81.07
753.104	85.57
753.285	30.28
753.466	56.08
753.646	45.84
753.827	68.37
754.007	20.86
754.188	158.89
754.368	83.93
754.549	77.79
754.729	45.02
754.909	40.52
755.09	49.12
755.27	36.42
755.451	60.18
755.631	63.86
755.811	38.06
755.992	48.3
756.172	49.94
756.352	105.64
756.533	55.26
756.713	36.83
756.893	86.39
757.073	42.97
757.253	121.21
757.434	60.59
757.614	-12.32
757.794	32.73
757.974	54.44
758.154	48.71
758.334	101.14
758.514	25.36
758.694	85.57
758.875	75.74
759.055	82.29
759.235	42.56
759.415	20.86
759.594	54.44
759.774	47.89
759.954	85.16
760.134	29.87
760.314	32.73
760.494	46.66
760.674	100.32
760.854	-12.32
761.034	68.37
761.213	37.24
761.393	-4.95
761.573	32.73
761.753	136.36
761.932	74.51
762.112	104
762.292	43.38
762.472	17.99
762.651	-7.82
762.831	67.55
763.01	58.95
763.19	39.29
763.37	42.15
763.549	73.28
763.729	94.99
763.908	21.26
764.088	63.45
764.267	0.79
764.447	83.93
764.626	25.77
764.806	119.98
764.985	13.07
765.165	2.83
765.344	9.39
765.523	122.84
765.703	65.09
765.882	96.22
766.061	-30.75
766.241	58.95
766.42	36.42
766.599	85.98
766.779	36.01
766.958	27.41
767.137	27.82
767.316	87.21
767.495	136.77
767.675	15.12
767.854	27
768.033	132.26
768.212	124.07
768.391	42.56
768.57	98.68
768.749	108.92
768.928	-43.45
769.107	34.78
769.286	43.79
769.465	21.67
769.644	51.98
769.823	31.5
770.002	70.42
770.181	-28.71
770.36	65.09
770.539	46.66
770.718	83.93
770.896	62.63
771.075	29.05
771.254	50.76
771.433	146.6
771.612	63.04
771.79	53.21
771.969	69.6
772.148	38.06
772.326	-8.64
772.505	67.55
772.684	35.19
772.862	56.08
773.041	70.01
773.22	29.46
773.398	63.86
773.577	4.47
773.755	91.31
773.934	56.49
774.112	30.28
774.291	48.71
774.469	97.04
774.648	32.73
774.826	61
775.005	-13.96
775.183	72.87
775.362	42.56
775.54	172.81
775.718	120.8
775.897	85.57
776.075	9.8
776.253	28.64
776.432	42.56
776.61	68.78
776.788	33.14
776.966	28.23
777.144	21.67
777.323	62.22
777.501	49.53
777.679	55.67
777.857	40.52
778.035	22.08
778.213	55.26
778.391	3.24
778.57	-48.78
778.748	70.01
778.926	83.52
779.104	34.78
779.282	95.81
779.46	73.28
779.638	14.71
779.815	58.95
779.993	32.32
780.171	13.89
780.349	33.55
780.527	50.35
780.705	73.69
780.883	90.9
781.061	105.64
781.238	-13.14
781.416	2.83
781.594	117.11
781.772	-48.37
781.949	36.83
782.127	69.6
782.305	31.91
782.482	-0.03
782.66	-21.74
782.838	2.83
783.015	69.19
783.193	36.83
783.37	39.29
783.548	80.25
783.726	-10.27
783.903	23.31
784.081	-5.36
784.258	104.41
784.436	68.37
784.613	-1.26
784.79	107.69
784.968	84.34
785.145	-17.65
785.323	67.96
785.5	28.23
785.677	-14.37
785.855	-22.97
786.032	97.86
786.209	9.39
786.386	48.71
786.564	73.69
786.741	27.82
786.918	34.37
787.095	17.99
787.273	17.99
787.45	5.7
787.627	49.12
787.804	-1.67
787.981	63.04
788.158	57.72
788.335	7.75
788.512	38.88
788.689	54.44
788.866	0.79
789.043	124.89
789.22	72.87
789.397	27
789.574	55.26
789.751	94.58
789.928	30.69
790.105	65.91
790.282	69.6
790.459	45.84
790.635	49.12
790.812	-11.5
790.989	68.37
791.166	60.18
791.343	34.78
791.519	64.27
791.696	58.54
791.873	25.77
792.049	70.42
792.226	36.83
792.403	63.04
792.579	54.44
792.756	73.69
792.933	25.77
793.109	52.39
793.286	38.88
793.462	32.32
793.639	58.13
793.815	-14.78
793.992	36.42
794.168	46.66
794.345	38.47
794.521	102.36
794.698	5.29
794.874	31.09
795.05	25.36
795.227	28.64
795.403	54.44
795.579	106.05
795.756	76.56
795.932	24.54
796.108	21.26
796.285	53.21
796.461	86.8
796.637	24.95
796.813	40.93
796.989	-26.25
797.166	10.62
797.342	27.41
797.518	46.25
797.694	23.72
797.87	59.36
798.046	65.09
798.222	94.58
798.398	-41.81
798.574	90.9
798.75	47.07
798.926	1.19
799.102	-36.9
799.278	58.95
799.454	62.22
799.63	18.81
799.806	3.24
799.982	32.73
800.157	15.53
800.333	62.63
800.509	36.83
800.685	6.11
800.861	119.16
801.036	63.04
801.212	22.08
801.388	100.73
801.564	2.01
801.739	82.29
801.915	11.84
802.091	26.18
802.266	48.3
802.442	-18.88
802.617	73.28
802.793	150.7
802.969	106.05
803.144	33.55
803.32	8.98
803.495	92.12
803.671	56.9
803.846	57.72
804.022	-2.08
804.197	85.98
804.372	47.89
804.548	8.98
804.723	20.04
804.898	14.3
805.074	4.06
805.249	31.91
805.424	73.69
805.6	3.24
805.775	109.74
805.95	35.19
806.125	63.86
806.301	47.48
806.476	28.64
806.651	42.97
806.826	68.78
807.001	96.63
807.176	54.44
807.352	40.52
807.527	66.32
807.702	104.82
807.877	2.01
808.052	-37.72
808.227	-10.27
808.402	67.96
808.577	76.97
808.752	54.44
808.927	67.55
809.102	53.21
809.276	9.8
809.451	109.33
809.626	75.74
809.801	-9.45
809.976	56.9
810.151	14.3
810.325	63.45
810.5	-18.06
810.675	104.41
810.85	26.59
811.024	27.41
811.199	-15.6
811.374	61
811.548	46.66
811.723	56.9
811.898	19.22
812.072	-8.23
812.247	113.01
812.421	71.64
812.596	81.48
812.77	79.43
812.945	73.28
813.119	100.73
813.294	88.85
813.468	61.4
813.643	72.05
813.817	19.22
813.992	42.97
814.166	-4.54
814.34	-6.59
814.515	3.65
814.689	4.47
814.863	-26.25
815.038	-36.08
815.212	41.33
815.386	4.06
815.56	31.91
815.735	24.13
815.909	67.55
816.083	35.19
816.257	88.03
816.431	20.45
816.605	98.68
816.78	10.21
816.954	8.98
817.128	29.46
817.302	100.73
817.476	72.46
817.65	51.17
817.824	111.38
817.998	41.74
818.172	7.34
818.346	-3.72
818.52	36.42
818.694	20.86
818.867	119.57
819.041	73.28
819.215	-34.03
819.389	29.87
819.563	76.56
819.737	-59.02
819.91	1.19
820.084	73.28
820.258	61.4
820.432	29.46
820.605	2.01
820.779	-12.73
820.953	-18.06
821.126	73.69
821.3	32.73
821.473	14.71
821.647	24.95
821.821	47.48
821.994	41.74
822.168	47.48
822.341	87.62
822.515	46.66
822.688	17.17
822.862	0.38
823.035	41.33
823.208	16.35
823.382	58.54
823.555	95.81
823.729	51.17
823.902	53.62
824.075	81.48
824.249	49.94
824.422	51.98
824.595	56.49
824.768	44.61
824.942	27.82
825.115	81.07
825.288	-9.45
825.461	50.76
825.634	52.8
825.808	55.26
825.981	-12.32
826.154	77.38
826.327	36.42
826.5	68.37
826.673	-2.49
826.846	43.38
827.019	-8.64
827.192	10.21
827.365	45.84
827.538	63.04
827.711	-1.26
827.884	51.57
828.057	93.35
828.23	42.97
828.403	15.53
828.575	11.43
828.748	-36.08
828.921	49.53
829.094	11.84
829.267	118.34
829.439	40.11
829.612	47.07
829.785	22.49
829.957	8.57
830.13	11.84
830.303	-50
830.475	1.6
830.648	13.07
830.821	62.63
830.993	27.82
831.166	82.29
831.338	54.03
831.511	-17.65
831.683	60.18
831.856	32.32
832.028	30.69
832.201	50.35
832.373	-33.21
832.546	43.38
832.718	22.9
832.891	15.53
833.063	14.71
833.235	90.9
833.408	72.46
833.58	30.69
833.752	36.83
833.924	75.74
834.097	151.52
834.269	89.26
834.441	-12.32
834.613	31.09
834.785	-4.54
834.958	76.97
835.13	100.73
835.302	9.8
835.474	39.7
835.646	18.81
835.818	6.93
835.99	29.87
836.162	57.72
836.334	63.04
836.506	78.61
836.678	99.91
836.85	51.98
837.022	-23.38
837.194	21.26
837.366	8.98
837.538	18.4
837.71	45.43
837.882	63.86
838.053	69.19
838.225	-50
838.397	96.22
838.569	23.72
838.74	-41.4
838.912	124.07
839.084	-18.88
839.256	67.14
839.427	12.66
839.599	51.57
839.771	44.61
839.942	8.16
840.114	12.25
840.285	25.36
840.457	96.63
840.628	48.3
840.8	54.03
840.971	87.21
841.143	8.16
841.314	-2.9
841.486	147.42
841.657	86.39
841.829	45.43
842	66.32
842.171	9.8
842.343	120.39
842.514	4.06
842.686	13.48
842.857	33.14
843.028	-10.68
843.199	-16.83
843.371	38.06
843.542	11.43
843.713	103.18
843.884	-26.66
844.055	26.18
844.227	32.32
844.398	30.69
844.569	70.83
844.74	96.63
844.911	6.93
845.082	68.78
845.253	7.34
845.424	34.37
845.595	24.95
845.766	50.35
845.937	35.19
846.108	17.17
846.279	36.42
846.45	37.65
846.621	73.69
846.792	57.72
846.962	78.2
847.133	88.03
847.304	15.12
847.475	53.21
847.646	33.96
847.816	90.49
847.987	72.87
848.158	32.32
848.329	13.07
848.499	142.5
848.67	59.36
848.841	50.76
849.011	51.17
849.182	85.98
849.352	26.18
849.523	-24.61
849.693	29.87
849.864	64.68
850.034	9.39
850.205	90.49
850.375	-19.29
850.546	-13.55
850.716	19.63
850.887	36.01
851.057	-17.65
851.228	1.6
851.398	-40.58
851.568	16.76
851.739	13.48
851.909	51.98
852.079	-3.31
852.249	68.37
852.42	51.17
852.59	81.48
852.76	36.83
852.93	88.44
853.1	-2.9
853.271	104
853.441	74.51
853.611	-20.1
853.781	-22.97
853.951	82.29
854.121	-9.05
854.291	43.79
854.461	4.06
854.631	126.94
854.801	-4.54
854.971	42.97
855.141	98.27
855.311	4.47
855.481	131.86
855.651	1.19
855.821	1.6
855.991	45.43
856.16	-7.82
856.33	32.73
856.5	144.96
856.67	12.25
856.84	3.65
857.009	22.49
857.179	99.5
857.349	48.71
857.518	28.23
857.688	89.26
857.858	38.47
858.027	86.8
858.197	49.12
858.367	60.18
858.536	22.49
858.706	24.54
858.875	7.75
859.045	80.66
859.214	14.71
859.384	63.04
859.553	-15.6
859.723	-15.6
859.892	-0.44
860.061	58.54
860.231	-3.31
860.4	57.31
860.569	2.42
860.739	34.37
860.908	52.39
861.077	-36.49
861.247	15.12
861.416	69.6
861.585	7.34
861.754	77.79
861.924	73.28
862.093	-1.67
862.262	43.38
862.431	56.9
862.6	33.96
862.769	45.43
862.938	-26.66
863.107	108.92
863.276	74.51
863.445	30.69
863.614	23.72
863.783	71.24
863.952	19.22
864.121	111.38
864.29	-47.55
864.459	-27.48
864.628	71.64
864.797	77.79
864.966	5.7
865.135	6.93
865.303	-1.67
865.472	22.9
865.641	94.17
865.81	29.05
865.979	-33.21
866.147	47.07
866.316	30.28
866.485	78.61
866.653	100.32
866.822	26.18
866.991	34.37
867.159	-16.83
867.328	-5.36
867.496	63.45
867.665	21.67
867.833	74.1
868.002	85.57
868.17	118.34
868.339	-4.95
868.507	-29.93
868.676	99.09
868.844	55.26
869.013	-23.38
869.181	12.66
869.349	65.5
869.518	45.84
869.686	73.69
869.854	48.3
870.023	26.18
870.191	45.02
870.359	-19.29
870.527	37.24
870.695	38.88
870.864	97.04
871.032	12.25
871.2	-0.85
871.368	60.18
871.536	42.15
871.704	-33.21
871.872	19.22
872.04	108.92
872.209	-3.72
872.377	34.37
872.545	67.96
872.712	14.3
872.88	65.5
873.048	57.31
873.216	69.6
873.384	44.2
873.552	69.19
873.72	-28.3
873.888	35.6
874.056	55.67
874.223	51.57
874.391	-8.23
874.559	59.36
874.727	81.07
874.894	68.78
875.062	42.15
875.23	8.98
875.398	87.62
875.565	41.33
875.733	17.17
875.9	23.31
876.068	61.4
876.236	97.04
876.403	95.4
876.571	8.57
876.738	17.58
876.906	75.33
877.073	-15.19
877.241	15.53
877.408	40.93
877.576	51.57
877.743	87.62
877.91	-4.95
878.078	11.43
878.245	52.39
878.412	11.02
878.58	16.76
878.747	40.52
878.914	-2.08
879.082	47.89
879.249	-22.56
879.416	67.55
879.583	-3.31
879.75	40.11
879.918	2.42
880.085	40.52
880.252	86.8
880.419	22.49
880.586	8.16
880.753	123.25
880.92	57.31
881.087	0.38
881.254	72.87
881.421	33.14
881.588	-5.36
881.755	10.21
881.922	4.47
882.089	94.17
882.256	17.99
882.423	62.22
882.589	48.71
882.756	31.5
882.923	54.44
883.09	9.39
883.257	58.95
883.423	15.53
883.59	31.09
883.757	26.18
883.924	67.55
884.09	57.31
884.257	18.81
884.424	83.52
884.59	65.5
884.757	3.24
884.923	58.95
885.09	8.98
885.257	13.48
885.423	-27.07
885.59	-38.13
885.756	2.42
885.923	14.71
886.089	52.39
886.255	55.67
886.422	37.65
886.588	48.3
886.755	84.75
886.921	101.55
887.087	-1.67
887.254	45.84
887.42	70.83
887.586	-13.14
887.752	33.96
887.919	61.81
888.085	20.45
888.251	31.5
888.417	42.15
888.583	86.39
888.75	-31.57
888.916	31.91
889.082	21.67
889.248	94.99
889.414	90.9
889.58	-7.82
889.746	-7.82
889.912	-7.82
